Sample Index, EXG Channel 0, EXG Channel 1, EXG Channel 2, EXG Channel 3, Accel Channel 0, Accel Channel 1, Accel Channel 2, Other, Other, Other, Other, Other, Timestamp, Other, Timestamp (Formatted)
0.0, -2070.8200044650584, -3261.8509837538004, -2347.1743018408306, -3036.8829117692076, 0.0, 0.0, 0.0, 0.0, 0.0, 0.0, 0.0, 0.0, 1.7011942199747696E9, 0.0, 2023-11-28 15:56:59.974
1.0, -2059.4694080995396, -3208.5424497853965, -2367.1827666037716, -2990.2800184213556, 0.0, 0.01600000075995922, 0.0, 0.0, 0.0, 0.0, 0.0, 0.0, 1.7011942199882023E9, 0.0, 2023-11-28 15:56:59.988
1.0, -2073.3855758346617, -3175.077824981883, -2318.14145848481, -2928.2051589568146, 0.0, 0.01600000075995922, 0.0, 0.0, 0.0, 0.0, 0.0, 0.0, 1.7011942199882023E9, 0.0, 2023-11-28 15:56:59.988
2.0, -2078.0941098788753, -3254.01589334663, -2329.477095250506, -3015.4009264237247, -0.03200000151991844, 0.01600000075995922, 0.0, 0.0, 0.0, 0.0, 0.0, 0.0, 1.7011942200048583E9, 0.0, 2023-11-28 15:57:00.004
2.0, -2058.885983706452, -3234.2318225810304, -2386.69008477265, -3020.6741853612475, -0.03200000151991844, 0.01600000075995922, 0.0, 0.0, 0.0, 0.0, 0.0, 0.0, 1.7011942200048583E9, 0.0, 2023-11-28 15:57:00.004
3.0, -2067.076364609413, -3172.448675313033, -2326.788107182365, -2918.7955706682988, -0.03200000151991844, 0.01600000075995922, 0.0, 0.0, 0.0, 0.0, 0.0, 0.0, 1.7011942200056071E9, 0.0, 2023-11-28 15:57:00.005
3.0, -2064.9932403340936, -3217.7426036763936, -2296.479957941454, -2973.0129003259353, -0.03200000151991844, 0.01600000075995922, 0.0, 0.0, 0.0, 0.0, 0.0, 0.0, 1.7011942200056071E9, 0.0, 2023-11-28 15:57:00.005
4.0, -2057.150670127012, -3251.035193081945, -2371.2368181557395, -3027.8884523757733, -0.03200000151991844, 0.01600000075995922, 0.0, 0.0, 0.0, 0.0, 0.0, 0.0, 1.701194220017933E9, 0.0, 2023-11-28 15:57:00.017
4.0, -2042.0788733055815, -3181.143942710012, -2334.4661217913963, -2933.553215893451, -0.03200000151991844, 0.01600000075995922, 0.0, 0.0, 0.0, 0.0, 0.0, 0.0, 1.701194220017933E9, 0.0, 2023-11-28 15:57:00.017
5.0, -2062.9325554585084, -3190.5348314987496, -2303.3688536598347, -2941.9193720943294, -0.03200000151991844, 0.01600000075995922, 0.0, 0.0, 0.0, 0.0, 0.0, 0.0, 1.701194220033636E9, 0.0, 2023-11-28 15:57:00.033
5.0, -2068.355410394259, -3270.6921072490513, -2357.664721216541, -3031.4076982340775, -0.03200000151991844, 0.01600000075995922, 0.0, 0.0, 0.0, 0.0, 0.0, 0.0, 1.701194220033636E9, 0.0, 2023-11-28 15:57:00.033
6.0, -2064.1517628440633, -3226.2807952752337, -2375.2310313084163, -2988.006159248296, -0.03200000151991844, 0.01600000075995922, 0.0, 0.0, 0.0, 0.0, 0.0, 0.0, 1.7011942200343227E9, 0.0, 2023-11-28 15:57:00.034
6.0, -2078.6251756725833, -3174.8945698840544, -2317.341119894292, -2917.7259592809714, -0.03200000151991844, 0.01600000075995922, 0.0, 0.0, 0.0, 0.0, 0.0, 0.0, 1.7011942200343227E9, 0.0, 2023-11-28 15:57:00.034
7.0, -2074.51502562128, -3251.3456047782674, -2325.6923164953478, -3005.460272341501, -0.03200000151991844, 0.01600000075995922, 0.0, 0.0, 0.0, 0.0, 0.0, 0.0, 1.701194220047961E9, 0.0, 2023-11-28 15:57:00.047
7.0, -2053.2013357738033, -3232.9639964960515, -2377.733024378773, -3010.486697881948, -0.03200000151991844, 0.01600000075995922, 0.0, 0.0, 0.0, 0.0, 0.0, 0.0, 1.701194220047961E9, 0.0, 2023-11-28 15:57:00.047
8.0, -2047.4456297419965, -3165.8926306907088, -2324.94433650421, -2924.1885064044036, -0.03200000151991844, 0.01600000075995922, 0.0, 0.0, 0.0, 0.0, 0.0, 0.0, 1.7011942200636585E9, 0.0, 2023-11-28 15:57:00.063
8.0, -2061.3767570769414, -3214.709544812329, -2301.917772477027, -2973.573885319289, -0.03200000151991844, 0.01600000075995922, 0.0, 0.0, 0.0, 0.0, 0.0, 0.0, 1.7011942200636585E9, 0.0, 2023-11-28 15:57:00.063
9.0, -2055.209662050009, -3249.879563995637, -2374.015563822817, -3031.7816882296465, -0.03200000151991844, 0.01600000075995922, 0.0, 0.0, 0.0, 0.0, 0.0, 0.0, 1.7011942200644355E9, 0.0, 2023-11-28 15:57:00.064
9.0, -2036.8130941679701, -3176.1362166693434, -2317.7861679890193, -2937.6035275454633, -0.03200000151991844, 0.01600000075995922, 0.0, 0.0, 0.0, 0.0, 0.0, 0.0, 1.7011942200644355E9, 0.0, 2023-11-28 15:57:00.064
10.0, -2056.458788635209, -3183.664635280147, -2283.913894090336, -2933.639233592432, -0.03200000151991844, 0.01600000075995922, -0.9760000463575125, 0.0, 0.0, 0.0, 0.0, 0.0, 1.7011942200779953E9, 0.0, 2023-11-28 15:57:00.077
10.0, -2050.598365404643, -3256.416909118183, -2332.99634110881, -3016.373300412204, -0.03200000151991844, 0.01600000075995922, -0.9760000463575125, 0.0, 0.0, 0.0, 0.0, 0.0, 1.7011942200779953E9, 0.0, 2023-11-28 15:57:00.077
11.0, -2036.091293476522, -3202.532430556603, -2352.0361717832275, -2965.2451281179674, -0.03200000151991844, 0.01600000075995922, -0.9760000463575125, 0.0, 0.0, 0.0, 0.0, 0.0, 1.7011942200936797E9, 0.0, 2023-11-28 15:57:00.093
11.0, -2053.287353472784, -3171.109791128896, -2301.760696678888, -2906.9774868083186, -0.03200000151991844, 0.01600000075995922, -0.9760000463575125, 0.0, 0.0, 0.0, 0.0, 0.0, 1.7011942200936797E9, 0.0, 2023-11-28 15:57:00.093
12.0, -2051.2079690974206, -3243.087905676104, -2312.2249367549084, -2996.8285832437687, -0.03200000151991844, 0.01600000075995922, -0.9760000463575125, 0.0, 0.0, 0.0, 0.0, 0.0, 1.7011942200943985E9, 0.0, 2023-11-28 15:57:00.094
12.0, -2037.7331095570698, -3228.4798564491794, -2379.5805349568836, -2996.1292219520546, -0.03200000151991844, 0.01600000075995922, -0.9760000463575125, 0.0, 0.0, 0.0, 0.0, 0.0, 1.7011942200943985E9, 0.0, 2023-11-28 15:57:00.094
13.0, -2043.8964646840468, -3157.9266437850893, -2324.6488844077103, -2905.126236330252, -0.03200000151991844, 0.01600000075995922, -0.9760000463575125, 0.0, 0.0, 0.0, 0.0, 0.0, 1.7011942201082635E9, 0.0, 2023-11-28 15:57:00.108
13.0, -2056.78789983131, -3205.7188253188506, -2295.417826354038, -2956.8116537178867, -0.03200000151991844, 0.01600000075995922, -0.9760000463575125, 0.0, 0.0, 0.0, 0.0, 0.0, 1.7011942201082635E9, 0.0, 2023-11-28 15:57:00.108
14.0, -2030.3542869444937, -3240.8252662029117, -2370.8740478600375, -3017.8767401943915, -0.03200000151991844, 0.01600000075995922, -0.9760000463575125, 0.0, 0.0, 0.0, 0.0, 0.0, 1.7011942201236691E9, 0.0, 2023-11-28 15:57:00.123
14.0, -2023.8094620220363, -3167.0744390767068, -2318.4855292807333, -2923.964112407062, -0.03200000151991844, 0.01600000075995922, -0.9760000463575125, 0.0, 0.0, 0.0, 0.0, 0.0, 1.7011942201236691E9, 0.0, 2023-11-28 15:57:00.123
15.0, -2034.5429748948663, -3173.851137796417, -2278.21802645782, -2911.0165787604637, -0.03200000151991844, 0.01600000075995922, -0.9760000463575125, 0.0, 0.0, 0.0, 0.0, 0.0, 1.7011942201244223E9, 0.0, 2023-11-28 15:57:00.124
15.0, -2040.698850221932, -3232.148698305711, -2320.7780879535712, -3007.666813315358, -0.03200000151991844, 0.01600000075995922, -0.9760000463575125, 0.0, 0.0, 0.0, 0.0, 0.0, 1.7011942201244223E9, 0.0, 2023-11-28 15:57:00.124
16.0, -2028.2075843699276, -3198.8710684999824, -2339.2307543349452, -2961.161157366354, -0.03200000151991844, 0.01600000075995922, -0.9760000463575125, 0.0, 0.0, 0.0, 0.0, 0.0, 1.7011942201380167E9, 0.0, 2023-11-28 15:57:00.138
16.0, -2036.1735712755471, -3148.449737297371, -2301.614840580616, -2903.5554783488624, -0.03200000151991844, 0.01600000075995922, -0.9760000463575125, 0.0, 0.0, 0.0, 0.0, 0.0, 1.7011942201380167E9, 0.0, 2023-11-28 15:57:00.138
17.0, -2044.4387501776218, -3232.1075594061986, -2307.852993706707, -2993.1896605868824, -0.03200000151991844, 0.01600000075995922, -0.9760000463575125, 0.0, 0.0, 0.0, 0.0, 0.0, 1.7011942201533875E9, 0.0, 2023-11-28 15:57:00.153
17.0, -2029.916718649678, -3224.4519841969013, -2370.3579416661523, -3003.036817170214, -0.03200000151991844, 0.01600000075995922, -0.9760000463575125, 0.0, 0.0, 0.0, 0.0, 0.0, 1.7011942201533875E9, 0.0, 2023-11-28 15:57:00.153
18.0, -2030.6422592410818, -3152.634685347788, -2313.2234900430776, -2902.609283660073, -0.03200000151991844, 0.01600000075995922, -0.9760000463575125, 0.0, 0.0, 0.0, 0.0, 0.0, 1.7011942201686714E9, 0.0, 2023-11-28 15:57:00.168
18.0, -2043.978742483072, -3204.1854663370177, -2272.1855678292923, -2964.680403224658, -0.03200000151991844, 0.01600000075995922, -0.9760000463575125, 0.0, 0.0, 0.0, 0.0, 0.0, 1.7011942201686714E9, 0.0, 2023-11-28 15:57:00.168
19.0, -2030.518842542544, -3236.539340853691, -2356.153801634442, -3015.7300376198255, -0.03200000151991844, 0.01600000075995922, -0.9760000463575125, 0.0, 0.0, 0.0, 0.0, 0.0, 1.7011942201694093E9, 0.0, 2023-11-28 15:57:00.169
19.0, -2018.4202661858872, -3164.4078904083, -2324.7910006060265, -2932.049776111264, -0.03200000151991844, 0.01600000075995922, -0.9760000463575125, 0.0, 0.0, 0.0, 0.0, 0.0, 1.7011942201694093E9, 0.0, 2023-11-28 15:57:00.169
20.0, -2033.5519014066085, -3162.235008534044, -2285.1592807755806, -2926.413746878039, -0.03200000151991844, 0.01600000075995922, -0.9760000463575125, 0.0, 0.0, 0.0, 0.0, 0.0, 1.7011942201839807E9, 0.0, 2023-11-28 15:57:00.183
20.0, -2023.6262069242075, -3237.7548083392903, -2335.674109477084, -3018.8266747831367, -0.03200000151991844, 0.01600000075995922, -0.9760000463575125, 0.0, 0.0, 0.0, 0.0, 0.0, 1.7011942201839807E9, 0.0, 2023-11-28 15:57:00.183
21.0, -2011.63234776631, -3181.906882300973, -2357.193493822124, -2967.575085790362, -0.03200000151991844, 0.01600000075995922, -0.9760000463575125, 0.0, 0.0, 0.0, 0.0, 0.0, 1.7011942202150156E9, 0.0, 2023-11-28 15:57:00.215
21.0, -2019.0448294784874, -3144.470483744517, -2294.052762870211, -2901.520972772967, -0.03200000151991844, 0.01600000075995922, -0.9760000463575125, 0.0, 0.0, 0.0, 0.0, 0.0, 1.7011942202150156E9, 0.0, 2023-11-28 15:57:00.215
22.0, -2027.4371649790555, -3218.681318565272, -2292.9382726834156, -2989.3300838326104, -0.01600000075995922, 0.01600000075995922, -0.9760000463575125, 0.0, 0.0, 0.0, 0.0, 0.0, 1.7011942202156978E9, 0.0, 2023-11-28 15:57:00.215
22.0, -2018.8466147808358, -3211.7961627468467, -2355.203867045697, -3001.8026501848362, -0.01600000075995922, 0.01600000075995922, -0.9760000463575125, 0.0, 0.0, 0.0, 0.0, 0.0, 1.7011942202156978E9, 0.0, 2023-11-28 15:57:00.215
23.0, -2021.2289310526103, -3129.4996642218903, -2291.7115854979493, -2900.1633890890516, -0.01600000075995922, 0.01600000075995922, -0.9760000463575125, 0.0, 0.0, 0.0, 0.0, 0.0, 1.7011942202164373E9, 0.0, 2023-11-28 15:57:00.216
23.0, -2035.9416974782944, -3183.8778095776215, -2271.3777494388632, -2951.94978377549, -0.01600000075995922, 0.01600000075995922, -0.9760000463575125, 0.0, 0.0, 0.0, 0.0, 0.0, 1.7011942202164373E9, 0.0, 2023-11-28 15:57:00.216
24.0, -2022.8894466329366, -3243.1327844755724, -2345.061258365866, -3019.7242507725023, -0.01600000075995922, 0.01600000075995922, -0.9760000463575125, 0.0, 0.0, 0.0, 0.0, 0.0, 1.701194220217213E9, 0.0, 2023-11-28 15:57:00.217
24.0, -2008.1430211076513, -3160.7203490519896, -2318.8782187760808, -2920.3812882495113, -0.01600000075995922, 0.01600000075995922, -0.9760000463575125, 0.0, 0.0, 0.0, 0.0, 0.0, 1.701194220217213E9, 0.0, 2023-11-28 15:57:00.217
25.0, -2026.7116243876517, -3164.890337502584, -2261.455794856418, -2920.370068549644, -0.01600000075995922, 0.01600000075995922, -0.9760000463575125, 0.0, 0.0, 0.0, 0.0, 0.0, 1.7011942202443316E9, 0.0, 2023-11-28 15:57:00.244
25.0, -2020.6567263593897, -3229.0296217426658, -2330.3148328405805, -3018.0338159925304, -0.01600000075995922, 0.01600000075995922, -0.9760000463575125, 0.0, 0.0, 0.0, 0.0, 0.0, 1.7011942202443316E9, 0.0, 2023-11-28 15:57:00.244
26.0, -2006.048677132465, -3188.5227653225884, -2332.308199516963, -2962.2681677532382, -0.01600000075995922, 0.01600000075995922, -0.9760000463575125, 0.0, 0.0, 0.0, 0.0, 0.0, 1.7011942202451751E9, 0.0, 2023-11-28 15:57:00.245
26.0, -2017.4404123974964, -3157.930383685045, -2286.733778656926, -2899.146136301104, -0.01600000075995922, 0.01600000075995922, -0.9760000463575125, 0.0, 0.0, 0.0, 0.0, 0.0, 1.7011942202451751E9, 0.0, 2023-11-28 15:57:00.245
27.0, -2020.2004585647956, -3224.7661357931793, -2283.057457000483, -2987.6022500530817, -0.01600000075995922, 0.01600000075995922, -0.9760000463575125, 0.0, 0.0, 0.0, 0.0, 0.0, 1.7011942202457972E9, 0.0, 2023-11-28 15:57:00.245
27.0, -2018.603521283716, -3224.1827114000916, -2360.9146942780353, -2992.557617494371, -0.01600000075995922, 0.01600000075995922, -0.9760000463575125, 0.0, 0.0, 0.0, 0.0, 0.0, 1.7011942202457972E9, 0.0, 2023-11-28 15:57:00.245
28.0, -2014.1829595360905, -3145.8280674284324, -2293.0467297821306, -2896.599264431279, -0.01600000075995922, 0.01600000075995922, -0.9760000463575125, 0.0, 0.0, 0.0, 0.0, 0.0, 1.7011942202579277E9, 0.0, 2023-11-28 15:57:00.257
28.0, -2029.1612588586286, -3198.631714902818, -2274.638942200225, -2949.1897376081906, -0.01600000075995922, 0.01600000075995922, -0.9760000463575125, 0.0, 0.0, 0.0, 0.0, 0.0, 1.7011942202579277E9, 0.0, 2023-11-28 15:57:00.257
29.0, -2021.6141407480463, -3242.4895216831937, -2344.9191421675496, -3008.440972606186, -0.01600000075995922, 0.01600000075995922, -0.9760000463575125, 0.0, 0.0, 0.0, 0.0, 0.0, 1.701194220273621E9, 0.0, 2023-11-28 15:57:00.273
29.0, -2002.585529773496, -3158.8017803747207, -2297.321435431484, -2919.2443586629815, -0.01600000075995922, 0.01600000075995922, -0.9760000463575125, 0.0, 0.0, 0.0, 0.0, 0.0, 1.701194220273621E9, 0.0, 2023-11-28 15:57:00.273
30.0, -2025.1333866063505, -3165.2942466977984, -2259.8438979755156, -2909.0269519840367, -0.01600000075995922, 0.01600000075995922, -0.9920000471174717, 0.0, 0.0, 0.0, 0.0, 0.0, 1.7011942202744243E9, 0.0, 2023-11-28 15:57:00.274
30.0, -2021.6029210481793, -3236.2326690573245, -2310.6691383733414, -3006.7056590267457, -0.01600000075995922, 0.01600000075995922, -0.9920000471174717, 0.0, 0.0, 0.0, 0.0, 0.0, 1.7011942202744243E9, 0.0, 2023-11-28 15:57:00.274
31.0, -2006.9799122214317, -3180.979387111962, -2325.9840286918916, -2948.9129850114696, -0.01600000075995922, 0.01600000075995922, -0.9920000471174717, 0.0, 0.0, 0.0, 0.0, 0.0, 1.701194220304696E9, 0.0, 2023-11-28 15:57:00.304
31.0, -2015.2937098229304, -3140.7642428884283, -2283.117295399774, -2881.4227504110895, -0.01600000075995922, 0.01600000075995922, -0.9920000471174717, 0.0, 0.0, 0.0, 0.0, 0.0, 1.701194220304696E9, 0.0, 2023-11-28 15:57:00.304
32.0, -2019.7329710703343, -3216.1419264953583, -2285.6080687702633, -2977.938348567579, -0.03200000151991844, 0.01600000075995922, -0.9920000471174717, 0.0, 0.0, 0.0, 0.0, 0.0, 1.7011942203050408E9, 0.0, 2023-11-28 15:57:00.305
32.0, -2008.7414051005617, -3208.269437088631, -2354.934594248887, -2989.7639122274704, -0.03200000151991844, 0.01600000075995922, -0.9920000471174717, 0.0, 0.0, 0.0, 0.0, 0.0, 1.7011942203050408E9, 0.0, 2023-11-28 15:57:00.305
33.0, -2001.9011280816048, -3137.087921231985, -2292.388507389929, -2895.769006641116, -0.03200000151991844, 0.01600000075995922, -0.9920000471174717, 0.0, 0.0, 0.0, 0.0, 0.0, 1.7011942203057802E9, 0.0, 2023-11-28 15:57:00.305
33.0, -2019.9872842673212, -3180.5829577166587, -2272.7166336230002, -2957.3427195115946, -0.03200000151991844, 0.01600000075995922, -0.9920000471174717, 0.0, 0.0, 0.0, 0.0, 0.0, 1.7011942203057802E9, 0.0, 2023-11-28 15:57:00.305
34.0, -2006.4525863276795, -3231.2286829166114, -2348.8759563206695, -3025.3041815063916, -0.03200000151991844, 0.01600000075995922, -0.9920000471174717, 0.0, 0.0, 0.0, 0.0, 0.0, 1.701194220317989E9, 0.0, 2023-11-28 15:57:00.317
34.0, -1997.7199199311435, -3152.058740754612, -2305.175225338433, -2926.2865902795456, -0.03200000151991844, 0.01600000075995922, -0.9920000471174717, 0.0, 0.0, 0.0, 0.0, 0.0, 1.701194220317989E9, 0.0, 2023-11-28 15:57:00.317
35.0, -2015.2787502231076, -3151.0003490671515, -2264.144782924559, -2906.625936212484, -0.03200000151991844, 0.01600000075995922, -0.9920000471174717, 0.0, 0.0, 0.0, 0.0, 0.0, 1.7011942203336487E9, 0.0, 2023-11-28 15:57:00.333
35.0, -2023.0839214306325, -3226.9203181676567, -2318.2648751833476, -3008.4110534065403, -0.03200000151991844, 0.01600000075995922, -0.9920000471174717, 0.0, 0.0, 0.0, 0.0, 0.0, 1.7011942203336487E9, 0.0, 2023-11-28 15:57:00.333
36.0, -2007.881228110753, -3184.9287214651704, -2331.0254138321616, -2947.267429030966, -0.03200000151991844, 0.01600000075995922, -0.9920000471174717, 0.0, 0.0, 0.0, 0.0, 0.0, 1.701194220334335E9, 0.0, 2023-11-28 15:57:00.334
36.0, -2019.833948369138, -3137.574108226225, -2276.277018380817, -2881.250715013128, -0.03200000151991844, 0.01600000075995922, -0.9920000471174717, 0.0, 0.0, 0.0, 0.0, 0.0, 1.701194220334335E9, 0.0, 2023-11-28 15:57:00.334
37.0, -2023.824421621859, -3212.1327537428588, -2280.8060372271575, -2970.3313920577057, -0.03200000151991844, 0.01600000075995922, -0.9920000471174717, 0.0, 0.0, 0.0, 0.0, 0.0, 1.7011942203480637E9, 0.0, 2023-11-28 15:57:00.348
37.0, -1995.8237906536087, -3208.063742591068, -2342.394709697459, -2969.4899145676754, -0.03200000151991844, 0.01600000075995922, -0.9920000471174717, 0.0, 0.0, 0.0, 0.0, 0.0, 1.7011942203480637E9, 0.0, 2023-11-28 15:57:00.348
38.0, -2000.3976882994175, -3140.102280596271, -2285.4996116715483, -2885.0429735681973, -0.03200000151991844, 0.01600000075995922, -0.9920000471174717, 0.0, 0.0, 0.0, 0.0, 0.0, 1.70119422036368E9, 0.0, 2023-11-28 15:57:00.363
38.0, -2011.3107163701206, -3174.213908092119, -2257.1698695071973, -2937.3828734480776, -0.03200000151991844, 0.01600000075995922, -0.9920000471174717, 0.0, 0.0, 0.0, 0.0, 0.0, 1.70119422036368E9, 0.0, 2023-11-28 15:57:00.363
39.0, -2001.8712088819593, -3224.5230422960594, -2337.1551098595373, -3006.9861515234224, -0.03200000151991844, 0.01600000075995922, -0.9920000471174717, 0.0, 0.0, 0.0, 0.0, 0.0, 1.7011942203644023E9, 0.0, 2023-11-28 15:57:00.364
39.0, -1989.9521477231756, -3146.5162090202793, -2299.082928310614, -2910.1900608702563, -0.03200000151991844, 0.01600000075995922, -0.9920000471174717, 0.0, 0.0, 0.0, 0.0, 0.0, 1.7011942203644023E9, 0.0, 2023-11-28 15:57:00.364
40.0, -2004.732232348062, -3146.2357165236026, -2259.514786779415, -2900.0100531908683, -0.03200000151991844, 0.01600000075995922, -0.9920000471174717, 0.0, 0.0, 0.0, 0.0, 0.0, 1.701194220378141E9, 0.0, 2023-11-28 15:57:00.378
40.0, -2006.7031596247107, -3220.427851844579, -2316.4323242050596, -2997.4194874367677, -0.03200000151991844, 0.01600000075995922, -0.9920000471174717, 0.0, 0.0, 0.0, 0.0, 0.0, 1.701194220378141E9, 0.0, 2023-11-28 15:57:00.378
41.0, -1992.8318706890568, -3167.081918876618, -2335.928422674071, -2952.540687968489, -0.03200000151991844, 0.01600000075995922, -0.9920000471174717, 0.0, 0.0, 0.0, 0.0, 0.0, 1.701194220393691E9, 0.0, 2023-11-28 15:57:00.393
41.0, -2000.6520014964044, -3123.5756626920775, -2280.211393134203, -2891.83463188773, -0.03200000151991844, 0.01600000075995922, -0.9920000471174717, 0.0, 0.0, 0.0, 0.0, 0.0, 1.701194220393691E9, 0.0, 2023-11-28 15:57:00.393
42.0, -2014.7663839291781, -3198.1118688089773, -2289.6434208224528, -2982.0185794192366, -0.03200000151991844, 0.01600000075995922, -0.9920000471174717, 0.0, 0.0, 0.0, 0.0, 0.0, 1.7011942203943963E9, 0.0, 2023-11-28 15:57:00.394
42.0, -1988.2991119427606, -3198.5793563034385, -2352.907568472903, -2995.6355551579036, -0.03200000151991844, 0.01600000075995922, -0.9920000471174717, 0.0, 0.0, 0.0, 0.0, 0.0, 1.7011942203943963E9, 0.0, 2023-11-28 15:57:00.394
43.0, -1989.7165340259671, -3127.655893543735, -2289.0412969295867, -2893.5699454671703, -0.03200000151991844, 0.01600000075995922, -0.9920000471174717, 0.0, 0.0, 0.0, 0.0, 0.0, 1.7011942204079804E9, 0.0, 2023-11-28 15:57:00.407
43.0, -2008.6740869013593, -3177.31054525543, -2263.3556640339084, -2943.9837968698703, -0.03200000151991844, 0.01600000075995922, -0.9920000471174717, 0.0, 0.0, 0.0, 0.0, 0.0, 1.7011942204079804E9, 0.0, 2023-11-28 15:57:00.407
44.0, -2001.6617744844407, -3214.4028730159625, -2334.0322933965363, -2996.174100751523, -0.03200000151991844, 0.01600000075995922, -0.9920000471174717, 0.0, 0.0, 0.0, 0.0, 0.0, 1.70119422042372E9, 0.0, 2023-11-28 15:57:00.423
44.0, -1996.7550257425755, -3150.9068515682593, -2296.3640210428275, -2905.7358400230296, -0.03200000151991844, 0.01600000075995922, -0.9920000471174717, 0.0, 0.0, 0.0, 0.0, 0.0, 1.70119422042372E9, 0.0, 2023-11-28 15:57:00.423
45.0, -2003.5018052626401, -3145.0800874372944, -2250.7746405829675, -2894.130930460524, -0.03200000151991844, 0.01600000075995922, -0.9920000471174717, 0.0, 0.0, 0.0, 0.0, 0.0, 1.7011942204244049E9, 0.0, 2023-11-28 15:57:00.424
45.0, -2006.6807202249765, -3214.735724112019, -2311.880865958985, -2990.4894528188743, -0.03200000151991844, 0.01600000075995922, -0.9920000471174717, 0.0, 0.0, 0.0, 0.0, 0.0, 1.7011942204244049E9, 0.0, 2023-11-28 15:57:00.424
46.0, -1980.5313397347927, -3154.384958527051, -2318.896918275859, -2936.6461131568067, -0.03200000151991844, 0.01600000075995922, -0.9920000471174717, 0.0, 0.0, 0.0, 0.0, 0.0, 1.701194220437947E9, 0.0, 2023-11-28 15:57:00.437
46.0, -1993.7892850777134, -3131.190099001862, -2277.9450137610547, -2883.5544933858328, -0.03200000151991844, 0.01600000075995922, -0.9920000471174717, 0.0, 0.0, 0.0, 0.0, 0.0, 1.701194220437947E9, 0.0, 2023-11-28 15:57:00.437
47.0, -2000.633301996626, -3201.64981416706, -2264.290639022831, -2969.916263162624, -0.03200000151991844, 0.01600000075995922, -0.9920000471174717, 0.0, 0.0, 0.0, 0.0, 0.0, 1.701194220453764E9, 0.0, 2023-11-28 15:57:00.453
47.0, -1994.698080766946, -3195.2284059431404, -2332.7644673115574, -2971.109291248489, -0.03200000151991844, 0.01600000075995922, -0.9920000471174717, 0.0, 0.0, 0.0, 0.0, 0.0, 1.701194220453764E9, 0.0, 2023-11-28 15:57:00.453
48.0, -2013.199365847744, -3138.501603415236, -2278.4162411554717, -2889.100765020121, -0.03200000151991844, 0.01600000075995922, -0.9920000471174717, 0.0, 0.0, 0.0, 0.0, 0.0, 1.701194220454476E9, 0.0, 2023-11-28 15:57:00.454
48.0, -2001.0933096911758, -3167.7625806685537, -2254.903490134049, -2929.046636446845, -0.03200000151991844, 0.01600000075995922, -0.9920000471174717, 0.0, 0.0, 0.0, 0.0, 0.0, 1.701194220454476E9, 0.0, 2023-11-28 15:57:00.454
49.0, -1989.6529557267204, -3205.232638324611, -2325.411823998671, -2992.2733850977384, -0.03200000151991844, 0.01600000075995922, -0.9920000471174717, 0.0, 0.0, 0.0, 0.0, 0.0, 1.7011942204680088E9, 0.0, 2023-11-28 15:57:00.468
49.0, -1968.840412473306, -3133.9838042687625, -2298.3536478192545, -2904.5577715369873, -0.03200000151991844, 0.01600000075995922, -0.9920000471174717, 0.0, 0.0, 0.0, 0.0, 0.0, 1.7011942204680088E9, 0.0, 2023-11-28 15:57:00.468
50.0, -2001.355102688074, -3133.8977865697816, -2254.9708083332516, -2895.7877061408944, -0.03200000151991844, 0.01600000075995922, -0.9920000471174717, 0.0, 0.0, 0.0, 0.0, 0.0, 1.7011942204836328E9, 0.0, 2023-11-28 15:57:00.483
50.0, -1985.77467947267, -3209.0697756791487, -2314.9251445229165, -2997.5204647355713, -0.03200000151991844, 0.01600000075995922, -0.9920000471174717, 0.0, 0.0, 0.0, 0.0, 0.0, 1.7011942204836328E9, 0.0, 2023-11-28 15:57:00.483
51.0, -1974.8878307016566, -3168.7648738566786, -2326.9152637808584, -2943.119879980106, -0.03200000151991844, 0.03200000151991844, -0.9920000471174717, 0.0, 0.0, 0.0, 0.0, 0.0, 1.7011942204843493E9, 0.0, 2023-11-28 15:57:00.484
51.0, -1993.9538406757638, -3125.426913170144, -2279.1081226472743, -2882.4138238993473, -0.03200000151991844, 0.03200000151991844, -0.9920000471174717, 0.0, 0.0, 0.0, 0.0, 0.0, 1.7011942204843493E9, 0.0, 2023-11-28 15:57:00.484
52.0, -2015.383467421867, -3209.32034897618, -2294.826922161039, -2973.7459207172506, -0.03200000151991844, 0.03200000151991844, -0.9920000471174717, 0.0, 0.0, 0.0, 0.0, 0.0, 1.701194220514372E9, 0.0, 2023-11-28 15:57:00.514
52.0, -2006.7255990244448, -3209.1670130779967, -2353.3039978682064, -2984.4794335900806, -0.03200000151991844, 0.03200000151991844, -0.9920000471174717, 0.0, 0.0, 0.0, 0.0, 0.0, 1.701194220514372E9, 0.0, 2023-11-28 15:57:00.514
53.0, -2010.065329684876, -3149.6876441827044, -2296.150846745353, -2895.8587642400526, -0.03200000151991844, 0.03200000151991844, -0.9920000471174717, 0.0, 0.0, 0.0, 0.0, 0.0, 1.701194220515128E9, 0.0, 2023-11-28 15:57:00.515
53.0, -2023.1474997298792, -3190.6769476970658, -2262.790939140599, -2943.2919153780676, -0.03200000151991844, 0.03200000151991844, -0.9920000471174717, 0.0, 0.0, 0.0, 0.0, 0.0, 1.701194220515128E9, 0.0, 2023-11-28 15:57:00.515
54.0, -2007.144467819482, -3231.677470911294, -2336.7549405642785, -3007.218025320675, -0.03200000151991844, 0.03200000151991844, -0.9920000471174717, 0.0, 0.0, 0.0, 0.0, 0.0, 1.7011942205158308E9, 0.0, 2023-11-28 15:57:00.515
54.0, -1999.8404432060197, -3160.9522228492424, -2312.591446950566, -2913.159541435074, -0.03200000151991844, 0.03200000151991844, -0.9920000471174717, 0.0, 0.0, 0.0, 0.0, 0.0, 1.7011942205158308E9, 0.0, 2023-11-28 15:57:00.515
55.0, -2011.0115243736655, -3156.25116860494, -2257.5887383022346, -2902.16049566539, -0.03200000151991844, 0.03200000151991844, -0.9920000471174717, 0.0, 0.0, 0.0, 0.0, 0.0, 1.7011942205279438E9, 0.0, 2023-11-28 15:57:00.527
55.0, -2015.480704820715, -3230.4769630255178, -2297.1269606337883, -2993.3691757847555, -0.03200000151991844, 0.03200000151991844, -0.9920000471174717, 0.0, 0.0, 0.0, 0.0, 0.0, 1.7011942205279438E9, 0.0, 2023-11-28 15:57:00.527
56.0, -1986.002813369967, -3182.752099690959, -2324.2487151124515, -2944.675678361673, -0.03200000151991844, 0.03200000151991844, -0.9920000471174717, 0.0, 0.0, 0.0, 0.0, 0.0, 1.7011942205436203E9, 0.0, 2023-11-28 15:57:00.543
56.0, -1994.1894543729722, -3133.819248670712, -2264.021366226021, -2875.65208477946, -0.03200000151991844, 0.03200000151991844, -0.9920000471174717, 0.0, 0.0, 0.0, 0.0, 0.0, 1.7011942205436203E9, 0.0, 2023-11-28 15:57:00.543
57.0, -2003.539204262197, -3212.865774134174, -2267.2115008882247, -2968.4502223799936, -0.03200000151991844, 0.03200000151991844, -0.9920000471174717, 0.0, 0.0, 0.0, 0.0, 0.0, 1.7011942205443017E9, 0.0, 2023-11-28 15:57:00.544
57.0, -1986.5488387634978, -3204.821249329485, -2338.0788651485927, -2980.7395336343907, -0.03200000151991844, 0.03200000151991844, -0.9920000471174717, 0.0, 0.0, 0.0, 0.0, 0.0, 1.7011942205443017E9, 0.0, 2023-11-28 15:57:00.544
58.0, -1991.960473999381, -3121.20456612017, -2272.8811892210506, -2876.6244587679394, -0.03200000151991844, 0.03200000151991844, -0.9920000471174717, 0.0, 0.0, 0.0, 0.0, 0.0, 1.701194220557973E9, 0.0, 2023-11-28 15:57:00.557
58.0, -1993.4152950821444, -3168.8284521559253, -2258.572331990581, -2925.138440993149, -0.03200000151991844, 0.03200000151991844, -0.9920000471174717, 0.0, 0.0, 0.0, 0.0, 0.0, 1.701194220557973E9, 0.0, 2023-11-28 15:57:00.557
59.0, -1989.899789123796, -3210.1356471665204, -2321.3876916463487, -2989.9209880256094, -0.03200000151991844, 0.03200000151991844, -0.9920000471174717, 0.0, 0.0, 0.0, 0.0, 0.0, 1.7011942205735857E9, 0.0, 2023-11-28 15:57:00.573
59.0, -1982.5882847104222, -3140.3902528928593, -2297.1867990330793, -2909.191507582087, -0.03200000151991844, 0.03200000151991844, -0.9920000471174717, 0.0, 0.0, 0.0, 0.0, 0.0, 1.7011942205735857E9, 0.0, 2023-11-28 15:57:00.573
60.0, -1998.0976498266682, -3140.0125229973346, -2249.4619356985204, -2890.1890759072267, -0.03200000151991844, 0.03200000151991844, -0.9760000463575125, 0.0, 0.0, 0.0, 0.0, 0.0, 1.7011942205743403E9, 0.0, 2023-11-28 15:57:00.574
60.0, -1991.238673307933, -3216.0783481961116, -2300.859380789567, -2991.5478445063345, -0.03200000151991844, 0.03200000151991844, -0.9760000463575125, 0.0, 0.0, 0.0, 0.0, 0.0, 1.7011942205743403E9, 0.0, 2023-11-28 15:57:00.574
61.0, -1964.232855727896, -3162.044273636304, -2326.930223380681, -2941.549121998716, -0.03200000151991844, 0.01600000075995922, -0.9760000463575125, 0.0, 0.0, 0.0, 0.0, 0.0, 1.7011942205879557E9, 0.0, 2023-11-28 15:57:00.587
61.0, -1992.5364185925573, -3119.9068208355457, -2289.396587425377, -2886.856825046707, -0.03200000151991844, 0.01600000075995922, -0.9760000463575125, 0.0, 0.0, 0.0, 0.0, 0.0, 1.7011942205879557E9, 0.0, 2023-11-28 15:57:00.587
62.0, -2004.1226286552846, -3193.9231808586046, -2280.424567431677, -2975.2157013998367, -0.03200000151991844, 0.01600000075995922, -0.9760000463575125, 0.0, 0.0, 0.0, 0.0, 0.0, 1.701194220603701E9, 0.0, 2023-11-28 15:57:00.603
62.0, -1981.1147641278803, -3192.135508679785, -2353.068384170998, -2989.2926848330535, -0.03200000151991844, 0.01600000075995922, -0.9760000463575125, 0.0, 0.0, 0.0, 0.0, 0.0, 1.701194220603701E9, 0.0, 2023-11-28 15:57:00.603
63.0, -1986.3394043659791, -3124.3984406823292, -2283.47632579552, -2891.052992796991, -0.03200000151991844, 0.01600000075995922, -0.9760000463575125, 0.0, 0.0, 0.0, 0.0, 0.0, 1.70119422060452E9, 0.0, 2023-11-28 15:57:00.604
63.0, -2006.1833135308698, -3172.751607209444, -2254.869831034448, -2938.598340933677, -0.03200000151991844, 0.01600000075995922, -0.9760000463575125, 0.0, 0.0, 0.0, 0.0, 0.0, 1.70119422060452E9, 0.0, 2023-11-28 15:57:00.604
64.0, -1994.4138483703136, -3224.8110145926476, -2328.8787112575956, -3001.6567940865643, -0.03200000151991844, 0.01600000075995922, -0.9760000463575125, 0.0, 0.0, 0.0, 0.0, 0.0, 1.7011942206179447E9, 0.0, 2023-11-28 15:57:00.617
64.0, -1987.5885309511796, -3144.021695749834, -2302.953724764753, -2917.9204340786673, -0.03200000151991844, 0.01600000075995922, -0.9760000463575125, 0.0, 0.0, 0.0, 0.0, 0.0, 1.7011942206179447E9, 0.0, 2023-11-28 15:57:00.617
65.0, -1993.2806586837396, -3144.3657665457577, -2254.9109699339606, -2891.9617884862237, -0.03200000151991844, 0.01600000075995922, -0.9760000463575125, 0.0, 0.0, 0.0, 0.0, 0.0, 1.7011942206501007E9, 0.0, 2023-11-28 15:57:00.650
65.0, -1989.3126248307526, -3207.6860126955435, -2295.948892147746, -2982.3963093147613, -0.03200000151991844, 0.01600000075995922, -0.9760000463575125, 0.0, 0.0, 0.0, 0.0, 0.0, 1.7011942206501007E9, 0.0, 2023-11-28 15:57:00.650
66.0, -1978.9792812531814, -3165.107251700014, -2318.478049480822, -2937.1771789505146, -0.03200000151991844, 0.01600000075995922, -0.9760000463575125, 0.0, 0.0, 0.0, 0.0, 0.0, 1.7011942206507137E9, 0.0, 2023-11-28 15:57:00.650
66.0, -1992.805691389367, -3118.5193179519847, -2272.608176524285, -2876.340226371307, -0.03200000151991844, 0.01600000075995922, -0.9760000463575125, 0.0, 0.0, 0.0, 0.0, 0.0, 1.7011942206507137E9, 0.0, 2023-11-28 15:57:00.650
67.0, -1971.6116783404723, -3175.320918479003, -2247.464829122182, -2955.8018807298504, -0.03200000151991844, 0.01600000075995922, -0.9760000463575125, 0.0, 0.0, 0.0, 0.0, 0.0, 1.7011942206515207E9, 0.0, 2023-11-28 15:57:00.651
67.0, -1981.6907087210566, -3190.142142003402, -2338.703428441193, -2980.1860284409486, -0.03200000151991844, 0.01600000075995922, -0.9760000463575125, 0.0, 0.0, 0.0, 0.0, 0.0, 1.7011942206515207E9, 0.0, 2023-11-28 15:57:00.651
68.0, -1971.5219207415357, -3108.4178481716663, -2279.665367740672, -2873.165051308926, -0.03200000151991844, 0.01600000075995922, -0.9760000463575125, 0.0, 0.0, 0.0, 0.0, 0.0, 1.7011942206522224E9, 0.0, 2023-11-28 15:57:00.652
68.0, -1998.4192812228575, -3160.320179756731, -2268.9655139674433, -2925.2020192923956, -0.03200000151991844, 0.01600000075995922, -0.9760000463575125, 0.0, 0.0, 0.0, 0.0, 0.0, 1.7011942206522224E9, 0.0, 2023-11-28 15:57:00.652
69.0, -1991.9903931990266, -3200.284750683233, -2331.780873623211, -2995.7552319564857, -0.03200000151991844, 0.01600000075995922, -0.9760000463575125, 0.0, 0.0, 0.0, 0.0, 0.0, 1.7011942206787317E9, 0.0, 2023-11-28 15:57:00.678
69.0, -1997.3908087350428, -3124.1665668850765, -2304.790015642997, -2905.0364787313156, -0.03200000151991844, 0.01600000075995922, -0.9760000463575125, 0.0, 0.0, 0.0, 0.0, 0.0, 1.7011942206787317E9, 0.0, 2023-11-28 15:57:00.678
70.0, -1989.091970733367, -3124.6602336792275, -2252.023767168168, -2889.377517616842, -0.03200000151991844, 0.01600000075995922, -0.9920000471174717, 0.0, 0.0, 0.0, 0.0, 0.0, 1.7011942206793923E9, 0.0, 2023-11-28 15:57:00.679
70.0, -1998.3444832237437, -3200.0416571861133, -2300.7546635908075, -2981.349137327168, -0.03200000151991844, 0.01600000075995922, -0.9920000471174717, 0.0, 0.0, 0.0, 0.0, 0.0, 1.7011942206793923E9, 0.0, 2023-11-28 15:57:00.679
71.0, -1976.0920784873888, -3139.6310532018542, -2320.7406889540143, -2934.7425040793605, -0.03200000151991844, 0.01600000075995922, -0.9920000471174717, 0.0, 0.0, 0.0, 0.0, 0.0, 1.7011942206936011E9, 0.0, 2023-11-28 15:57:00.693
71.0, -2000.3154105003923, -3105.818617702462, -2279.040804448072, -2870.3264672425576, -0.03200000151991844, 0.01600000075995922, -0.9920000471174717, 0.0, 0.0, 0.0, 0.0, 0.0, 1.7011942206936011E9, 0.0, 2023-11-28 15:57:00.693
72.0, -2004.4367802515626, -3181.5141928056255, -2261.321158458013, -2969.239341270644, -0.03200000151991844, 0.01600000075995922, -0.9920000471174717, 0.0, 0.0, 0.0, 0.0, 0.0, 1.7011942206943796E9, 0.0, 2023-11-28 15:57:00.694
72.0, -1983.6952950973064, -3192.449660276063, -2343.875710079912, -2983.03957210714, -0.03200000151991844, 0.01600000075995922, -0.9920000471174717, 0.0, 0.0, 0.0, 0.0, 0.0, 1.7011942206943796E9, 0.0, 2023-11-28 15:57:00.694
73.0, -1993.7182269785553, -3124.2750239837915, -2276.7632053750567, -2881.8603187059052, -0.03200000151991844, 0.01600000075995922, -0.9920000471174717, 0.0, 0.0, 0.0, 0.0, 0.0, 1.7011942207079487E9, 0.0, 2023-11-28 15:57:00.707
73.0, -2000.1321554025635, -3166.072145888582, -2265.625783307012, -2941.0965941040777, -0.03200000151991844, 0.01600000075995922, -0.9920000471174717, 0.0, 0.0, 0.0, 0.0, 0.0, 1.7011942207079487E9, 0.0, 2023-11-28 15:57:00.707
74.0, -2011.6510472660884, -3211.4371323511004, -2337.4206427563913, -3005.703365838621, -0.03200000151991844, 0.01600000075995922, -0.9920000471174717, 0.0, 0.0, 0.0, 0.0, 0.0, 1.701194220723692E9, 0.0, 2023-11-28 15:57:00.723
74.0, -1997.3496698355302, -3144.986589938402, -2301.68963857973, -2917.04155758908, -0.03200000151991844, 0.01600000075995922, -0.9920000471174717, 0.0, 0.0, 0.0, 0.0, 0.0, 1.701194220723692E9, 0.0, 2023-11-28 15:57:00.723
75.0, -1993.9314012760296, -3139.3617804050446, -2261.4857140560634, -2898.6113306074403, -0.03200000151991844, 0.01600000075995922, -0.9920000471174717, 0.0, 0.0, 0.0, 0.0, 0.0, 1.7011942207243772E9, 0.0, 2023-11-28 15:57:00.724
75.0, -2006.4600661275908, -3215.375247004442, -2307.018996016588, -2995.953446654137, -0.03200000151991844, 0.01600000075995922, -0.9920000471174717, 0.0, 0.0, 0.0, 0.0, 0.0, 1.7011942207243772E9, 0.0, 2023-11-28 15:57:00.724
76.0, -1984.4395351884887, -3166.82012587972, -2329.293840152677, -2946.541888439562, -0.03200000151991844, 0.01600000075995922, -0.9920000471174717, 0.0, 0.0, 0.0, 0.0, 0.0, 1.70119422073801E9, 0.0, 2023-11-28 15:57:00.738
76.0, -1987.3117783544585, -3116.7279058732092, -2263.359403933864, -2866.4070520889945, -0.03200000151991844, 0.01600000075995922, -0.9920000471174717, 0.0, 0.0, 0.0, 0.0, 0.0, 1.70119422073801E9, 0.0, 2023-11-28 15:57:00.738
77.0, -2002.7500853715464, -3187.2885983372107, -2259.2679533823393, -2959.3921846873127, -0.03200000151991844, 0.01600000075995922, -0.9920000471174717, 0.0, 0.0, 0.0, 0.0, 0.0, 1.7011942207541568E9, 0.0, 2023-11-28 15:57:00.754
77.0, -1978.0293466644362, -3186.948267441243, -2325.37816489907, -2967.5227271909826, -0.03200000151991844, 0.01600000075995922, -0.9920000471174717, 0.0, 0.0, 0.0, 0.0, 0.0, 1.7011942207541568E9, 0.0, 2023-11-28 15:57:00.754
78.0, -1984.2488002907485, -3117.5693833632395, -2265.9100157036446, -2878.883358341176, -0.03200000151991844, 0.01600000075995922, -0.9920000471174717, 0.0, 0.0, 0.0, 0.0, 0.0, 1.7011942207686596E9, 0.0, 2023-11-28 15:57:00.768
78.0, -1996.7662454424426, -3160.428636855446, -2239.143551720772, -2915.6016961061396, -0.03200000151991844, 0.01600000075995922, -0.9920000471174717, 0.0, 0.0, 0.0, 0.0, 0.0, 1.7011942207686596E9, 0.0, 2023-11-28 15:57:00.768
79.0, -1993.9837598754093, -3207.196085801348, -2323.59049272025, -2999.102442416828, -0.03200000151991844, 0.01600000075995922, -0.9920000471174717, 0.0, 0.0, 0.0, 0.0, 0.0, 1.7011942207693653E9, 0.0, 2023-11-28 15:57:00.769
79.0, -1984.5816513868049, -3132.8767938818783, -2287.3882611491717, -2907.516032401938, -0.03200000151991844, 0.01600000075995922, -0.9920000471174717, 0.0, 0.0, 0.0, 0.0, 0.0, 1.7011942207693653E9, 0.0, 2023-11-28 15:57:00.769
80.0, -2007.8550488110632, -3148.7003105944023, -2253.833878746722, -2895.009806950111, -0.03200000151991844, 0.01600000075995922, -0.9760000463575125, 0.0, 0.0, 0.0, 0.0, 0.0, 1.7011942207837348E9, 0.0, 2023-11-28 15:57:00.783
80.0, -1995.2964647598565, -3214.010183520615, -2300.915479288902, -2993.242019186262, -0.03200000151991844, 0.01600000075995922, -0.9760000463575125, 0.0, 0.0, 0.0, 0.0, 0.0, 1.7011942207837348E9, 0.0, 2023-11-28 15:57:00.783
81.0, -1991.8819361003116, -3179.4497680300847, -2339.006360337604, -2954.7247895426117, -0.03200000151991844, 0.01600000075995922, -0.9760000463575125, 0.0, 0.0, 0.0, 0.0, 0.0, 1.7011942207843852E9, 0.0, 2023-11-28 15:57:00.784
81.0, -1991.526645604521, -3122.1133618094027, -2280.5741634299047, -2888.9474291219376, -0.03200000151991844, 0.01600000075995922, -0.9760000463575125, 0.0, 0.0, 0.0, 0.0, 0.0, 1.7011942207843852E9, 0.0, 2023-11-28 15:57:00.784
82.0, -2006.1272150315344, -3193.799764160067, -2290.843928708229, -2978.0131465666927, -0.03200000151991844, 0.01600000075995922, -0.9760000463575125, 0.0, 0.0, 0.0, 0.0, 0.0, 1.7011942207980597E9, 0.0, 2023-11-28 15:57:00.798
82.0, -1988.1233366448432, -3205.2251585246995, -2360.7463987800293, -2994.401388172526, -0.03200000151991844, 0.01600000075995922, -0.9760000463575125, 0.0, 0.0, 0.0, 0.0, 0.0, 1.7011942207980597E9, 0.0, 2023-11-28 15:57:00.798
83.0, -2008.6666071014479, -3130.659033208154, -2294.161219968926, -2895.368837345857, -0.03200000151991844, 0.01600000075995922, -0.9760000463575125, 0.0, 0.0, 0.0, 0.0, 0.0, 1.701194220813622E9, 0.0, 2023-11-28 15:57:00.813
83.0, -2028.9667840609327, -3182.329490995966, -2274.1153562064283, -2945.6069134506397, -0.03200000151991844, 0.01600000075995922, -0.9760000463575125, 0.0, 0.0, 0.0, 0.0, 0.0, 1.701194220813622E9, 0.0, 2023-11-28 15:57:00.813
84.0, -2005.7644447358325, -3219.982803749852, -2333.830338798929, -3006.571022628341, -0.03200000151991844, 0.01600000075995922, -0.9760000463575125, 0.0, 0.0, 0.0, 0.0, 0.0, 1.7011942208143568E9, 0.0, 2023-11-28 15:57:00.814
84.0, -1995.6592350555584, -3142.9296449627727, -2303.2865758608095, -2917.3183101858012, -0.03200000151991844, 0.01600000075995922, -0.9760000463575125, 0.0, 0.0, 0.0, 0.0, 0.0, 1.7011942208143568E9, 0.0, 2023-11-28 15:57:00.814
85.0, -2010.0466301850975, -3138.6025807140395, -2266.0670915017836, -2899.905335992109, -0.03200000151991844, 0.01600000075995922, -0.9760000463575125, 0.0, 0.0, 0.0, 0.0, 0.0, 1.7011942208279617E9, 0.0, 2023-11-28 15:57:00.827
85.0, -2001.321443588473, -3216.085827996023, -2298.046976022888, -2995.257825262379, -0.03200000151991844, 0.01600000075995922, -0.9760000463575125, 0.0, 0.0, 0.0, 0.0, 0.0, 1.7011942208279617E9, 0.0, 2023-11-28 15:57:00.827
86.0, -1987.9288618471473, -3170.952715330757, -2315.6619048141874, -2950.4837429928593, -0.03200000151991844, 0.01600000075995922, -0.9760000463575125, 0.0, 0.0, 0.0, 0.0, 0.0, 1.7011942208436937E9, 0.0, 2023-11-28 15:57:00.843
86.0, -1992.1624285969883, -3120.299510330893, -2264.8965028156526, -2876.665597667452, -0.03200000151991844, 0.01600000075995922, -0.9760000463575125, 0.0, 0.0, 0.0, 0.0, 0.0, 1.7011942208436937E9, 0.0, 2023-11-28 15:57:00.843
87.0, -1996.8260838417336, -3190.3216572012752, -2257.955248497892, -2961.860518658068, -0.03200000151991844, 0.01600000075995922, -0.9760000463575125, 0.0, 0.0, 0.0, 0.0, 0.0, 1.7011942208443685E9, 0.0, 2023-11-28 15:57:00.844
87.0, -2000.4837059983984, -3198.2801643069834, -2344.2833591750823, -2980.1149703417905, -0.03200000151991844, 0.01600000075995922, -0.9760000463575125, 0.0, 0.0, 0.0, 0.0, 0.0, 1.7011942208443685E9, 0.0, 2023-11-28 15:57:00.844
88.0, -1999.9900392042473, -3127.2407646486536, -2290.787830208894, -2887.68708283687, -0.03200000151991844, 0.01600000075995922, -0.9760000463575125, 0.0, 0.0, 0.0, 0.0, 0.0, 1.7011942208579478E9, 0.0, 2023-11-28 15:57:00.857
88.0, -2002.63414847292, -3158.233315581456, -2246.88514462905, -2927.15050716931, -0.03200000151991844, 0.01600000075995922, -0.9760000463575125, 0.0, 0.0, 0.0, 0.0, 0.0, 1.7011942208579478E9, 0.0, 2023-11-28 15:57:00.857
89.0, -1996.4371342463419, -3219.18620505929, -2325.5502002970316, -2996.641588245984, -0.03200000151991844, 0.01600000075995922, -0.9760000463575125, 0.0, 0.0, 0.0, 0.0, 0.0, 1.7011942208900132E9, 0.0, 2023-11-28 15:57:00.890
89.0, -1984.8771034833044, -3142.140526072122, -2303.4698309586383, -2909.1840277821757, -0.03200000151991844, 0.01600000075995922, -0.9760000463575125, 0.0, 0.0, 0.0, 0.0, 0.0, 1.7011942208900132E9, 0.0, 2023-11-28 15:57:00.890
90.0, -2009.6576805897057, -3145.1361859366298, -2271.9985728315078, -2901.363896974828, -0.03200000151991844, 0.01600000075995922, -0.9760000463575125, 0.0, 0.0, 0.0, 0.0, 0.0, 1.7011942208907204E9, 0.0, 2023-11-28 15:57:00.890
90.0, -1992.8954489883035, -3204.6342543317005, -2297.6281072278507, -2990.0668441238813, -0.03200000151991844, 0.01600000075995922, -0.9760000463575125, 0.0, 0.0, 0.0, 0.0, 0.0, 1.7011942208907204E9, 0.0, 2023-11-28 15:57:00.890
91.0, -1986.5862377630547, -3174.9656279832125, -2337.495440755505, -2954.3433197471313, -0.03200000151991844, 0.01600000075995922, -0.9760000463575125, 0.0, 0.0, 0.0, 0.0, 0.0, 1.7011942208914723E9, 0.0, 2023-11-28 15:57:00.891
91.0, -1998.7932712184265, -3125.2399181723595, -2292.654040286783, -2883.7639277833514, -0.03200000151991844, 0.01600000075995922, -0.9760000463575125, 0.0, 0.0, 0.0, 0.0, 0.0, 1.7011942208914723E9, 0.0, 2023-11-28 15:57:00.891
92.0, -2005.0987425437197, -3191.615662585944, -2281.6849137167446, -2970.1256975601427, -0.03200000151991844, 0.01600000075995922, -0.9760000463575125, 0.0, 0.0, 0.0, 0.0, 0.0, 1.7011942208922164E9, 0.0, 2023-11-28 15:57:00.892
92.0, -1989.7202739259228, -3196.2905375305563, -2350.727206798736, -2983.03957210714, -0.03200000151991844, 0.01600000075995922, -0.9760000463575125, 0.0, 0.0, 0.0, 0.0, 0.0, 1.7011942208922164E9, 0.0, 2023-11-28 15:57:00.892
93.0, -1996.1903008492664, -3130.890907005407, -2286.2550714625977, -2888.36400472885, -0.03200000151991844, 0.01600000075995922, -0.9760000463575125, 0.0, 0.0, 0.0, 0.0, 0.0, 1.7011942209030197E9, 0.0, 2023-11-28 15:57:00.903
93.0, -2000.6108625968918, -3165.806612991728, -2260.8461911636405, -2931.4962709178217, -0.03200000151991844, 0.01600000075995922, -0.9760000463575125, 0.0, 0.0, 0.0, 0.0, 0.0, 1.7011942209030197E9, 0.0, 2023-11-28 15:57:00.903
94.0, -1998.6287156203762, -3215.5622420022264, -2328.9385496568866, -2998.066490129102, -0.03200000151991844, 0.01600000075995922, -0.9760000463575125, 0.0, 0.0, 0.0, 0.0, 0.0, 1.7011942209180014E9, 0.0, 2023-11-28 15:57:00.918
94.0, -1976.510947282426, -3137.581588026136, -2294.561389264185, -2909.5093990783207, -0.03200000151991844, 0.01600000075995922, -0.9760000463575125, 0.0, 0.0, 0.0, 0.0, 0.0, 1.7011942209180014E9, 0.0, 2023-11-28 15:57:00.918
95.0, -1986.0327325696126, -3142.963304062374, -2245.0937325502746, -2891.1913690953515, -0.03200000151991844, 0.01600000075995922, -0.9760000463575125, 0.0, 0.0, 0.0, 0.0, 0.0, 1.7011942209337668E9, 0.0, 2023-11-28 15:57:00.933
95.0, -1982.3264917135239, -3201.926566763781, -2276.4864527783357, -2980.2084678406827, -0.03200000151991844, 0.01600000075995922, -0.9760000463575125, 0.0, 0.0, 0.0, 0.0, 0.0, 1.7011942209337668E9, 0.0, 2023-11-28 15:57:00.933
96.0, -1974.4166033072397, -3154.4260974265635, -2306.7833823193796, -2940.8235814073123, -0.03200000151991844, 0.01600000075995922, -0.9760000463575125, 0.0, 0.0, 0.0, 0.0, 0.0, 1.7011942209344273E9, 0.0, 2023-11-28 15:57:00.934
96.0, -1981.0511858286336, -3108.5487446701154, -2257.9889075974934, -2868.6659516622312, -0.03200000151991844, 0.01600000075995922, -0.9760000463575125, 0.0, 0.0, 0.0, 0.0, 0.0, 1.7011942209344273E9, 0.0, 2023-11-28 15:57:00.934
97.0, -1991.0105394106358, -3179.928475224413, -2243.8745251647197, -2949.978856498841, -0.03200000151991844, 0.01600000075995922, -0.9760000463575125, 0.0, 0.0, 0.0, 0.0, 0.0, 1.7011942209479709E9, 0.0, 2023-11-28 15:57:00.947
97.0, -1967.019081194885, -3184.2517995731905, -2325.9017508928664, -2967.167436695192, -0.03200000151991844, 0.01600000075995922, -0.9760000463575125, 0.0, 0.0, 0.0, 0.0, 0.0, 1.7011942209479709E9, 0.0, 2023-11-28 15:57:00.947
98.0, -1977.161689874716, -3117.838656160049, -2263.157449336257, -2863.80782161979, -0.03200000151991844, 0.01600000075995922, -0.9760000463575125, 0.0, 0.0, 0.0, 0.0, 0.0, 1.701194220963674E9, 0.0, 2023-11-28 15:57:00.963
98.0, -1998.6474151201546, -3159.048613771796, -2254.6491769370623, -2916.8807418909855, -0.03200000151991844, 0.01600000075995922, -0.9760000463575125, 0.0, 0.0, 0.0, 0.0, 0.0, 1.701194220963674E9, 0.0, 2023-11-28 15:57:00.963
99.0, -1983.7177344970405, -3207.110068102367, -2323.579273020383, -2989.9583870251663, -0.03200000151991844, 0.01600000075995922, -0.9760000463575125, 0.0, 0.0, 0.0, 0.0, 0.0, 1.701194220964399E9, 0.0, 2023-11-28 15:57:00.964
99.0, -1978.272440161556, -3134.327875064686, -2292.8335554846562, -2905.814377922099, -0.03200000151991844, 0.01600000075995922, -0.9760000463575125, 0.0, 0.0, 0.0, 0.0, 0.0, 1.701194220964399E9, 0.0, 2023-11-28 15:57:00.964
100.0, -1972.797226626426, -3125.389514170587, -2253.1532169547863, -2892.1226041843183, -0.03200000151991844, 0.01600000075995922, -0.9760000463575125, 0.0, 0.0, 0.0, 0.0, 0.0, 1.7011942209950492E9, 0.0, 2023-11-28 15:57:00.995
100.0, -1987.233240455389, -3203.6805798429996, -2299.7561103026383, -2992.965266589541, -0.03200000151991844, 0.01600000075995922, -0.9760000463575125, 0.0, 0.0, 0.0, 0.0, 0.0, 1.7011942209950492E9, 0.0, 2023-11-28 15:57:00.995
0.0, -1968.8815513728186, -3166.805166279897, -2327.30421337625, -2955.9813959277235, -0.03200000151991844, 0.01600000075995922, -0.9760000463575125, 0.0, 0.0, 0.0, 0.0, 0.0, 1.7011942209958112E9, 0.0, 2023-11-28 15:57:00.995
1.0, -1979.3420515488833, -3126.9976711515337, -2270.921481644269, -2880.7233891193755, -0.03200000151991844, 0.01600000075995922, -0.9760000463575125, 0.0, 0.0, 0.0, 0.0, 0.0, 1.7011942209965255E9, 0.0, 2023-11-28 15:57:00.996
1.0, -1991.9081154000014, -3195.172307443805, -2251.780673671048, -2970.615624454338, -0.03200000151991844, 0.01600000075995922, -0.9760000463575125, 0.0, 0.0, 0.0, 0.0, 0.0, 1.7011942209965255E9, 0.0, 2023-11-28 15:57:00.996
2.0, -1986.8181115603074, -3208.4078133869916, -2337.3608043571003, -2984.36723659141, -0.03200000151991844, 0.01600000075995922, -0.9760000463575125, 0.0, 0.0, 0.0, 0.0, 0.0, 1.7011942209973068E9, 0.0, 2023-11-28 15:57:00.997
2.0, -1982.9473151061684, -3133.134846978821, -2277.1521549704485, -2883.8723848820664, -0.03200000151991844, 0.01600000075995922, -0.9760000463575125, 0.0, 0.0, 0.0, 0.0, 0.0, 1.7011942209973068E9, 0.0, 2023-11-28 15:57:00.997
3.0, -2000.6781807960942, -3173.450968501158, -2256.4817279153503, -2931.1634198217653, -0.03200000151991844, 0.01600000075995922, -0.9760000463575125, 0.0, 0.0, 0.0, 0.0, 0.0, 1.7011942210082188E9, 0.0, 2023-11-28 15:57:01.008
3.0, -1995.6779345553368, -3221.317948034033, -2325.7820740942843, -3001.4623192888685, -0.03200000151991844, 0.01600000075995922, -0.9760000463575125, 0.0, 0.0, 0.0, 0.0, 0.0, 1.7011942210082188E9, 0.0, 2023-11-28 15:57:01.008
4.0, -1987.2369803553447, -3152.986235943623, -2293.0616893819533, -2907.5609112014063, -0.03200000151991844, 0.01600000075995922, -0.9760000463575125, 0.0, 0.0, 0.0, 0.0, 0.0, 1.7011942210229757E9, 0.0, 2023-11-28 15:57:01.022
4.0, -2004.070270055905, -3144.9117919392884, -2250.16503689019, -2890.319972405676, -0.03200000151991844, 0.01600000075995922, -0.9760000463575125, 0.0, 0.0, 0.0, 0.0, 0.0, 1.7011942210229757E9, 0.0, 2023-11-28 15:57:01.022
5.0, -2001.3139637885615, -3224.504342796281, -2297.7365643265657, -2984.980580184143, -0.03200000151991844, 0.01600000075995922, -0.9760000463575125, 0.0, 0.0, 0.0, 0.0, 0.0, 1.701194221038613E9, 0.0, 2023-11-28 15:57:01.038
5.0, -1974.9102701013908, -3178.6531693395227, -2326.5524934851564, -2950.1658514966257, -0.03200000151991844, 0.01600000075995922, -0.9760000463575125, 0.0, 0.0, 0.0, 0.0, 0.0, 1.701194221038613E9, 0.0, 2023-11-28 15:57:01.038
6.0, -1995.3600430591032, -3129.5183637216687, -2272.331423927564, -2875.147198285442, -0.03200000151991844, 0.01600000075995922, -0.9760000463575125, 0.0, 0.0, 0.0, 0.0, 0.0, 1.7011942210393105E9, 0.0, 2023-11-28 15:57:01.039
6.0, -2000.2929711006582, -3206.1302143139765, -2275.6075762887485, -2973.065258925315, -0.03200000151991844, 0.01600000075995922, -0.9760000463575125, 0.0, 0.0, 0.0, 0.0, 0.0, 1.7011942210393105E9, 0.0, 2023-11-28 15:57:01.039
7.0, -1985.232393979095, -3208.714485183358, -2343.5914776832797, -2989.468460130971, -0.03200000151991844, 0.01600000075995922, -0.9760000463575125, 0.0, 0.0, 0.0, 0.0, 0.0, 1.7011942210529602E9, 0.0, 2023-11-28 15:57:01.052
7.0, -1996.2576190484688, -3135.846274446696, -2292.968191883061, -2894.9761478505097, -0.03200000151991844, 0.01600000075995922, -0.9760000463575125, 0.0, 0.0, 0.0, 0.0, 0.0, 1.7011942210529602E9, 0.0, 2023-11-28 15:57:01.052
8.0, -2000.7006201958284, -3171.379063925706, -2257.42792260414, -2929.3757476429455, -0.03200000151991844, 0.01600000075995922, -0.9760000463575125, 0.0, 0.0, 0.0, 0.0, 0.0, 1.7011942210686896E9, 0.0, 2023-11-28 15:57:01.068
8.0, -2010.3084231819957, -3231.1090061180294, -2332.8729244102724, -3009.5816420926712, -0.03200000151991844, 0.01600000075995922, -0.9760000463575125, 0.0, 0.0, 0.0, 0.0, 0.0, 1.7011942210686896E9, 0.0, 2023-11-28 15:57:01.068
9.0, -1987.0387656576931, -3150.5665206722915, -2307.523882510606, -2915.919587602373, -0.03200000151991844, 0.01600000075995922, -0.9760000463575125, 0.0, 0.0, 0.0, 0.0, 0.0, 1.7011942210694275E9, 0.0, 2023-11-28 15:57:01.069
9.0, -2006.4563262276351, -3153.7603952344507, -2260.9883073619567, -2903.1440893537365, -0.03200000151991844, 0.01600000075995922, -0.9760000463575125, 0.0, 0.0, 0.0, 0.0, 0.0, 1.7011942210694275E9, 0.0, 2023-11-28 15:57:01.069
10.0, -1996.29127814807, -3224.90451209154, -2309.3152945893817, -2996.9968787417747, -0.03200000151991844, 0.01600000075995922, -0.9760000463575125, 0.0, 0.0, 0.0, 0.0, 0.0, 1.7011942210829523E9, 0.0, 2023-11-28 15:57:01.082
10.0, -1989.7053143261, -3179.28895233199, -2336.107937871944, -2960.8993643694557, -0.03200000151991844, 0.01600000075995922, -0.9760000463575125, 0.0, 0.0, 0.0, 0.0, 0.0, 1.7011942210829523E9, 0.0, 2023-11-28 15:57:01.082
11.0, -2005.4802123392, -3139.9639042979106, -2273.128022618126, -2887.159756943118, -0.03200000151991844, 0.01600000075995922, -0.9760000463575125, 0.0, 0.0, 0.0, 0.0, 0.0, 1.7011942210986824E9, 0.0, 2023-11-28 15:57:01.098
11.0, -2014.1081615369767, -3211.4820111505687, -2275.1251291944645, -2970.398710256908, -0.03200000151991844, 0.01600000075995922, -0.9760000463575125, 0.0, 0.0, 0.0, 0.0, 0.0, 1.7011942210986824E9, 0.0, 2023-11-28 15:57:01.098
12.0, -1986.4890003642067, -3211.007043856196, -2348.6478224233724, -2990.4296144195832, -0.03200000151991844, 0.01600000075995922, -0.9760000463575125, 0.0, 0.0, 0.0, 0.0, 0.0, 1.7011942210994256E9, 0.0, 2023-11-28 15:57:01.099
12.0, -2003.1128556672484, -3133.557455673814, -2289.16845352808, -2892.548952779267, -0.03200000151991844, 0.01600000075995922, -0.9760000463575125, 0.0, 0.0, 0.0, 0.0, 0.0, 1.7011942210994256E9, 0.0, 2023-11-28 15:57:01.099
13.0, -1997.6376421321183, -3176.177355568856, -2252.640850660857, -2922.5953090232797, -0.03200000151991844, 0.01600000075995922, -0.9760000463575125, 0.0, 0.0, 0.0, 0.0, 0.0, 1.701194221112958E9, 0.0, 2023-11-28 15:57:01.112
13.0, -1989.6305163269863, -3222.118286624551, -2322.1955100367777, -2989.517078830395, -0.03200000151991844, 0.01600000075995922, -0.9760000463575125, 0.0, 0.0, 0.0, 0.0, 0.0, 1.701194221112958E9, 0.0, 2023-11-28 15:57:01.112
14.0, -1988.609523639083, -3146.699464118108, -2295.948892147746, -2905.6161632244475, -0.03200000151991844, 0.01600000075995922, -0.9760000463575125, 0.0, 0.0, 0.0, 0.0, 0.0, 1.7011942211286843E9, 0.0, 2023-11-28 15:57:01.128
14.0, -1995.6816744552925, -3141.889952775091, -2253.8862373461016, -2888.872631122824, -0.03200000151991844, 0.01600000075995922, -0.9760000463575125, 0.0, 0.0, 0.0, 0.0, 0.0, 1.7011942211286843E9, 0.0, 2023-11-28 15:57:01.128
15.0, -1988.6244832389057, -3216.5383558906615, -2296.9811045355164, -2987.632169252727, -0.03200000151991844, 0.01600000075995922, -0.9760000463575125, 0.0, 0.0, 0.0, 0.0, 0.0, 1.7011942211294153E9, 0.0, 2023-11-28 15:57:01.129
15.0, -1982.397549812682, -3181.3346776077524, -2323.612932119984, -2942.241003490519, -0.03200000151991844, 0.01600000075995922, -0.9760000463575125, 0.0, 0.0, 0.0, 0.0, 0.0, 1.7011942211294153E9, 0.0, 2023-11-28 15:57:01.129
16.0, -1989.0807510334998, -3127.57361574471, -2267.2862988873385, -2877.4322771583684, -0.03200000151991844, 0.01600000075995922, -0.9760000463575125, 0.0, 0.0, 0.0, 0.0, 0.0, 1.701194221142956E9, 0.0, 2023-11-28 15:57:01.142
16.0, -1998.8568495176733, -3203.688059642911, -2264.653409318533, -2959.410884187091, -0.03200000151991844, 0.01600000075995922, -0.9760000463575125, 0.0, 0.0, 0.0, 0.0, 0.0, 1.701194221142956E9, 0.0, 2023-11-28 15:57:01.142
17.0, -1990.0007664225996, -3212.7273978358135, -2325.3071067999117, -2977.900949568022, -0.03200000151991844, 0.01600000075995922, -0.9760000463575125, 0.0, 0.0, 0.0, 0.0, 0.0, 1.701194221158706E9, 0.0, 2023-11-28 15:57:01.158
17.0, -1996.4670534459874, -3138.176232119091, -2282.85176250292, -2897.481880820822, -0.03200000151991844, 0.01600000075995922, -0.9760000463575125, 0.0, 0.0, 0.0, 0.0, 0.0, 1.701194221158706E9, 0.0, 2023-11-28 15:57:01.158
18.0, -2005.3642754405737, -3171.7680135210976, -2254.192909142468, -2936.5039969584905, -0.03200000151991844, 0.01600000075995922, -0.9760000463575125, 0.0, 0.0, 0.0, 0.0, 0.0, 1.7011942211594276E9, 0.0, 2023-11-28 15:57:01.159
18.0, -1982.5134867113084, -3210.2665436649695, -2317.6178724910133, -3000.7966170967557, -0.03200000151991844, 0.01600000075995922, -0.9760000463575125, 0.0, 0.0, 0.0, 0.0, 0.0, 1.7011942211594276E9, 0.0, 2023-11-28 15:57:01.159
19.0, -1986.2346871672198, -3143.6065668547526, -2302.9238055651076, -2911.5775637538172, -0.03200000151991844, 0.01600000075995922, -0.9760000463575125, 0.0, 0.0, 0.0, 0.0, 0.0, 1.7011942211730072E9, 0.0, 2023-11-28 15:57:01.173
19.0, -1988.875056535937, -3132.540202885866, -2250.5315470858477, -2889.42239641631, -0.03200000151991844, 0.01600000075995922, -0.9760000463575125, 0.0, 0.0, 0.0, 0.0, 0.0, 1.7011942211730072E9, 0.0, 2023-11-28 15:57:01.173
20.0, -1998.9540869165212, -3203.650660643354, -2292.90835348377, -2990.5231119184755, -0.03200000151991844, 0.01600000075995922, -0.9760000463575125, 0.0, 0.0, 0.0, 0.0, 0.0, 1.70119422118851E9, 0.0, 2023-11-28 15:57:01.188
20.0, -1977.4908010708168, -3171.3566245259717, -2325.3445057994686, -2951.7141700782813, -0.03200000151991844, 0.01600000075995922, -0.9760000463575125, 0.0, 0.0, 0.0, 0.0, 0.0, 1.70119422118851E9, 0.0, 2023-11-28 15:57:01.188
21.0, -1991.3396506067365, -3131.085381803103, -2276.314417380374, -2881.572346409317, -0.03200000151991844, 0.01600000075995922, -0.9760000463575125, 0.0, 0.0, 0.0, 0.0, 0.0, 1.7011942212036781E9, 0.0, 2023-11-28 15:57:01.203
21.0, -2011.995118062012, -3192.6441350737587, -2266.8786497921683, -2960.2860207767226, -0.03200000151991844, 0.01600000075995922, -0.9760000463575125, 0.0, 0.0, 0.0, 0.0, 0.0, 1.7011942212036781E9, 0.0, 2023-11-28 15:57:01.203
22.0, -1998.2846448244527, -3200.153854184784, -2345.068738165777, -2980.43660173798, -0.03200000151991844, 0.01600000075995922, -0.9760000463575125, 0.0, 0.0, 0.0, 0.0, 0.0, 1.7011942212044249E9, 0.0, 2023-11-28 15:57:01.204
22.0, -1974.087492111139, -3123.313869695179, -2281.2062065224163, -2877.2639816603623, -0.03200000151991844, 0.01600000075995922, -0.9760000463575125, 0.0, 0.0, 0.0, 0.0, 0.0, 1.7011942212044249E9, 0.0, 2023-11-28 15:57:01.204
23.0, -2017.926599391736, -3168.843411755748, -2265.6669222065248, -2920.4411266488023, -0.03200000151991844, 0.01600000075995922, -0.9760000463575125, 0.0, 0.0, 0.0, 0.0, 0.0, 1.7011942212186587E9, 0.0, 2023-11-28 15:57:01.218
23.0, -1992.9403277877718, -3213.0789484316483, -2329.8810044457205, -2987.0599645595066, -0.03200000151991844, 0.01600000075995922, -0.9760000463575125, 0.0, 0.0, 0.0, 0.0, 0.0, 1.7011942212186587E9, 0.0, 2023-11-28 15:57:01.218
24.0, -1978.0966648636386, -3137.7835426237434, -2305.1079071392305, -2893.573685367126, -0.03200000151991844, 0.01600000075995922, -0.9760000463575125, 0.0, 0.0, 0.0, 0.0, 0.0, 1.7011942212194352E9, 0.0, 2023-11-28 15:57:01.219
24.0, -1992.5364185925573, -3130.2663437128067, -2262.839557840023, -2892.3956168810837, -0.03200000151991844, 0.01600000075995922, -0.9760000463575125, 0.0, 0.0, 0.0, 0.0, 0.0, 1.7011942212194352E9, 0.0, 2023-11-28 15:57:01.219
25.0, -1985.5839445749298, -3193.122842268087, -2289.893994119484, -2987.3965555555187, -0.03200000151991844, 0.01600000075995922, -0.9760000463575125, 0.0, 0.0, 0.0, 0.0, 0.0, 1.7011942212329369E9, 0.0, 2023-11-28 15:57:01.232
25.0, -1977.5955182695761, -3154.2802413282916, -2307.3555870126, -2939.417379023973, -0.03200000151991844, 0.01600000075995922, -0.9760000463575125, 0.0, 0.0, 0.0, 0.0, 0.0, 1.7011942212329369E9, 0.0, 2023-11-28 15:57:01.232
26.0, -1973.8069996144623, -3109.1508685629815, -2253.938595945481, -2864.0284757171758, -0.03200000151991844, 0.01600000075995922, -0.9760000463575125, 0.0, 0.0, 0.0, 0.0, 0.0, 1.7011942212486863E9, 0.0, 2023-11-28 15:57:01.248
26.0, -1989.9521477231756, -3182.531445593573, -2255.195202330593, -2955.214716436807, -0.03200000151991844, 0.01600000075995922, -0.9760000463575125, 0.0, 0.0, 0.0, 0.0, 0.0, 1.7011942212486863E9, 0.0, 2023-11-28 15:57:01.248
27.0, -1964.7564417216927, -3188.5190254226327, -2325.011654703412, -2973.031599825714, -0.03200000151991844, 0.01600000075995922, -0.9760000463575125, 0.0, 0.0, 0.0, 0.0, 0.0, 1.7011942212494109E9, 0.0, 2023-11-28 15:57:01.249
27.0, -1976.282813385129, -3109.592176757753, -2268.363390074577, -2881.164697314147, -0.03200000151991844, 0.01600000075995922, -0.9760000463575125, 0.0, 0.0, 0.0, 0.0, 0.0, 1.7011942212494109E9, 0.0, 2023-11-28 15:57:01.249
28.0, -1988.8301777364686, -3146.22075692378, -2238.814440524671, -2918.6310150702484, -0.03200000151991844, 0.01600000075995922, -0.9760000463575125, 0.0, 0.0, 0.0, 0.0, 0.0, 1.7011942212631192E9, 0.0, 2023-11-28 15:57:01.263
28.0, -1973.5975652169436, -3202.7643043538556, -2322.1768105369993, -3004.0652896580286, -0.03200000151991844, 0.01600000075995922, -0.9760000463575125, 0.0, 0.0, 0.0, 0.0, 0.0, 1.7011942212631192E9, 0.0, 2023-11-28 15:57:01.263
29.0, -1987.94382144697, -3140.7979019880295, -2310.3400271772407, -2916.7498453925364, -0.03200000151991844, 0.01600000075995922, -0.9760000463575125, 0.0, 0.0, 0.0, 0.0, 0.0, 1.7011942212786553E9, 0.0, 2023-11-28 15:57:01.278
29.0, -2001.706653283909, -3139.0850278083235, -2275.177487793844, -2900.2232274883427, -0.03200000151991844, 0.01600000075995922, -0.9760000463575125, 0.0, 0.0, 0.0, 0.0, 0.0, 1.7011942212786553E9, 0.0, 2023-11-28 15:57:01.278
30.0, -1994.0174189750105, -3205.4645121218637, -2317.973162986804, -2996.151661351789, -0.03200000151991844, 0.01600000075995922, -0.9760000463575125, 0.0, 0.0, 0.0, 0.0, 0.0, 1.7011942212794497E9, 0.0, 2023-11-28 15:57:01.279
30.0, -1990.7150873141363, -3175.223681080155, -2342.7350405934267, -2956.303027323913, -0.03200000151991844, 0.01600000075995922, -0.9760000463575125, 0.0, 0.0, 0.0, 0.0, 0.0, 1.7011942212794497E9, 0.0, 2023-11-28 15:57:01.279
31.0, -1992.9478075876832, -3127.6371940439567, -2272.2042673290707, -2879.859472229611, -0.03200000151991844, 0.01600000075995922, -0.9760000463575125, 0.0, 0.0, 0.0, 0.0, 0.0, 1.7011942212930064E9, 0.0, 2023-11-28 15:57:01.293
31.0, -1996.1529018497095, -3190.0785637041554, -2263.7296540294774, -2957.907444404904, -0.03200000151991844, 0.01600000075995922, -0.9760000463575125, 0.0, 0.0, 0.0, 0.0, 0.0, 1.7011942212930064E9, 0.0, 2023-11-28 15:57:01.293
32.0, -1971.9258299367502, -3192.6553547736257, -2330.632724336814, -2975.791645993013, -0.03200000151991844, 0.01600000075995922, -0.9760000463575125, 0.0, 0.0, 0.0, 0.0, 0.0, 1.7011942213091226E9, 0.0, 2023-11-28 15:57:01.309
32.0, -1976.5296467822045, -3123.242811596021, -2272.5109391254373, -2885.7759939595126, -0.03200000151991844, 0.01600000075995922, -0.9760000463575125, 0.0, 0.0, 0.0, 0.0, 0.0, 1.7011942213091226E9, 0.0, 2023-11-28 15:57:01.309
33.0, -1988.3290311424062, -3158.4651893787086, -2252.5623127617873, -2925.1160015934147, -0.03200000151991844, 0.01600000075995922, -0.9760000463575125, 0.0, 0.0, 0.0, 0.0, 0.0, 1.701194221323655E9, 0.0, 2023-11-28 15:57:01.323
33.0, -1994.6606817673892, -3219.522796055302, -2319.8917316640727, -3004.6599337509833, -0.03200000151991844, 0.01600000075995922, -0.9760000463575125, 0.0, 0.0, 0.0, 0.0, 0.0, 1.701194221323655E9, 0.0, 2023-11-28 15:57:01.323
34.0, -1979.2822131495923, -3135.737817347981, -2306.2448367257603, -2909.696394076105, -0.03200000151991844, 0.01600000075995922, -0.9760000463575125, 0.0, 0.0, 0.0, 0.0, 0.0, 1.7011942213243923E9, 0.0, 2023-11-28 15:57:01.324
34.0, -1993.1609818851575, -3141.119533384219, -2263.022812937852, -2900.3728234865703, -0.03200000151991844, 0.01600000075995922, -0.9760000463575125, 0.0, 0.0, 0.0, 0.0, 0.0, 1.7011942213243923E9, 0.0, 2023-11-28 15:57:01.324
35.0, -1977.150470174849, -3204.4509992338717, -2292.7849367852323, -2994.1433350755833, -0.03200000151991844, 0.01600000075995922, -0.9760000463575125, 0.0, 0.0, 0.0, 0.0, 0.0, 1.7011942213550584E9, 0.0, 2023-11-28 15:57:01.355
35.0, -1970.022220859304, -3162.956809225492, -2313.2982880421914, -2941.6426194976084, -0.03200000151991844, 0.01600000075995922, -0.9760000463575125, 0.0, 0.0, 0.0, 0.0, 0.0, 1.7011942213550584E9, 0.0, 2023-11-28 15:57:01.355
36.0, -1985.086537880823, -3113.5527308108285, -2266.2727859993465, -2872.2712152195163, -0.03200000151991844, 0.01600000075995922, -0.9760000463575125, 0.0, 0.0, 0.0, 0.0, 0.0, 1.70119422135578E9, 0.0, 2023-11-28 15:57:01.355
36.0, -1991.1376960091293, -3184.730506767519, -2242.2813277835958, -2948.475416716654, -0.03200000151991844, 0.01600000075995922, -0.9760000463575125, 0.0, 0.0, 0.0, 0.0, 0.0, 1.70119422135578E9, 0.0, 2023-11-28 15:57:01.355
37.0, -1975.5385732939467, -3190.736786096357, -2326.675910183694, -2970.256594058592, -0.03200000151991844, 0.01600000075995922, -0.9760000463575125, 0.0, 0.0, 0.0, 0.0, 0.0, 1.7011942213565652E9, 0.0, 2023-11-28 15:57:01.356
37.0, -1985.6250834744424, -3127.9775249399245, -2278.049730959814, -2874.698410290759, -0.03200000151991844, 0.01600000075995922, -0.9760000463575125, 0.0, 0.0, 0.0, 0.0, 0.0, 1.7011942213565652E9, 0.0, 2023-11-28 15:57:01.356
38.0, -2002.8585424702615, -3170.1149777406827, -2256.7547406121157, -2917.5801031826995, -0.03200000151991844, 0.01600000075995922, -0.9760000463575125, 0.0, 0.0, 0.0, 0.0, 0.0, 1.7011942213572588E9, 0.0, 2023-11-28 15:57:01.357
38.0, -1986.6610357621685, -3206.5528230089694, -2317.65527149057, -2992.9241276900284, -0.03200000151991844, 0.01600000075995922, -0.9760000463575125, 0.0, 0.0, 0.0, 0.0, 0.0, 1.7011942213572588E9, 0.0, 2023-11-28 15:57:01.357
39.0, -1973.810739514418, -3132.6449200846255, -2298.866014113184, -2910.29103816906, -0.03200000151991844, 0.01600000075995922, -0.9760000463575125, 0.0, 0.0, 0.0, 0.0, 0.0, 1.701194221368046E9, 0.0, 2023-11-28 15:57:01.368
39.0, -1998.2846448244527, -3120.651060926728, -2254.7052754363976, -2889.3214191175066, -0.03200000151991844, 0.01600000075995922, -0.9760000463575125, 0.0, 0.0, 0.0, 0.0, 0.0, 1.701194221368046E9, 0.0, 2023-11-28 15:57:01.368
40.0, -1996.5642908448353, -3210.6891523599625, -2297.456071829889, -2996.3947548489086, -0.03200000151991844, 0.01600000075995922, -0.9760000463575125, 0.0, 0.0, 0.0, 0.0, 0.0, 1.7011942213829992E9, 0.0, 2023-11-28 15:57:01.382
40.0, -1985.243613678962, -3154.2914610281587, -2333.0748790078796, -2956.6545779197477, -0.03200000151991844, 0.01600000075995922, -0.9760000463575125, 0.0, 0.0, 0.0, 0.0, 0.0, 1.7011942213829992E9, 0.0, 2023-11-28 15:57:01.382
41.0, -1995.5993966562673, -3113.29093781393, -2278.7303927517496, -2885.1850897665136, -0.03200000151991844, 0.01600000075995922, -0.9760000463575125, 0.0, 0.0, 0.0, 0.0, 0.0, 1.7011942213986986E9, 0.0, 2023-11-28 15:57:01.398
41.0, -1998.5277383215725, -3178.5110531412065, -2272.492239625659, -2967.530206990894, -0.03200000151991844, 0.01600000075995922, -0.9760000463575125, 0.0, 0.0, 0.0, 0.0, 0.0, 1.7011942213986986E9, 0.0, 2023-11-28 15:57:01.398
42.0, -1985.666222373955, -3183.354223583825, -2349.20506751677, -2992.733392792288, -0.03200000151991844, 0.01600000075995922, -0.9760000463575125, 0.0, 0.0, 0.0, 0.0, 0.0, 1.701194221399387E9, 0.0, 2023-11-28 15:57:01.399
42.0, -1993.7444062782452, -3114.1099759042263, -2288.626168034505, -2897.519279820379, -0.03200000151991844, 0.01600000075995922, -0.9760000463575125, 0.0, 0.0, 0.0, 0.0, 0.0, 1.701194221399387E9, 0.0, 2023-11-28 15:57:01.399
43.0, -2009.43702649232, -3159.5535002658144, -2256.0441596205346, -2933.6953320917673, -0.03200000151991844, 0.01600000075995922, -0.9760000463575125, 0.0, 0.0, 0.0, 0.0, 0.0, 1.701194221413049E9, 0.0, 2023-11-28 15:57:01.413
43.0, -2009.328569393605, -3218.946851462126, -2317.2775415950455, -2999.154801016208, -0.03200000151991844, 0.01600000075995922, -0.9760000463575125, 0.0, 0.0, 0.0, 0.0, 0.0, 1.701194221413049E9, 0.0, 2023-11-28 15:57:01.413
44.0, -1992.7495928900316, -3151.875485656783, -2292.3623280902393, -2912.931407537777, -0.03200000151991844, 0.01600000075995922, -0.9760000463575125, 0.0, 0.0, 0.0, 0.0, 0.0, 1.7011942214286292E9, 0.0, 2023-11-28 15:57:01.428
44.0, -1994.952393963933, -3135.2965091532096, -2243.687530166935, -2881.8939778055064, -0.03200000151991844, 0.01600000075995922, -0.9760000463575125, 0.0, 0.0, 0.0, 0.0, 0.0, 1.7011942214286292E9, 0.0, 2023-11-28 15:57:01.428
45.0, -1992.4616205934435, -3210.0870284670964, -2289.3180495263077, -2979.0079599549063, -0.03200000151991844, 0.01600000075995922, -0.9760000463575125, 0.0, 0.0, 0.0, 0.0, 0.0, 1.7011942214293327E9, 0.0, 2023-11-28 15:57:01.429
45.0, -1980.430362435989, -3163.2410416221246, -2319.6785573665984, -2944.024935769383, -0.03200000151991844, 0.01600000075995922, -0.9760000463575125, 0.0, 0.0, 0.0, 0.0, 0.0, 1.7011942214293327E9, 0.0, 2023-11-28 15:57:01.429
46.0, -1991.5827441038564, -3118.380941653624, -2271.7629591342993, -2872.252515719738, -0.03200000151991844, 0.01600000075995922, -0.9760000463575125, 0.0, 0.0, 0.0, 0.0, 0.0, 1.7011942214429977E9, 0.0, 2023-11-28 15:57:01.442
46.0, -1999.185960713774, -3182.714700691402, -2262.7011815416627, -2953.8085140534677, -0.03200000151991844, 0.01600000075995922, -0.9760000463575125, 0.0, 0.0, 0.0, 0.0, 0.0, 1.7011942214429977E9, 0.0, 2023-11-28 15:57:01.442
47.0, -1988.7965186368674, -3194.558963851072, -2337.5515392548405, -2979.636263147462, -0.03200000151991844, 0.01600000075995922, -0.9760000463575125, 0.0, 0.0, 0.0, 0.0, 0.0, 1.701194221458842E9, 0.0, 2023-11-28 15:57:01.458
47.0, -1988.1121169449762, -3123.5494833923876, -2283.3529090969823, -2883.7414883836173, -0.03200000151991844, 0.01600000075995922, -0.9760000463575125, 0.0, 0.0, 0.0, 0.0, 0.0, 1.701194221458842E9, 0.0, 2023-11-28 15:57:01.458
48.0, -2005.5475305384025, -3156.195070105605, -2258.2432207944803, -2924.2259054039605, -0.03200000151991844, 0.01600000075995922, -0.9760000463575125, 0.0, 0.0, 0.0, 0.0, 0.0, 1.7011942214593668E9, 0.0, 2023-11-28 15:57:01.459
48.0, -1989.574417827651, -3206.036716815084, -2330.382151039783, -2994.292931073811, -0.03200000151991844, 0.01600000075995922, -0.9760000463575125, 0.0, 0.0, 0.0, 0.0, 0.0, 1.7011942214593668E9, 0.0, 2023-11-28 15:57:01.459
49.0, -1982.92861560639, -3140.203257895075, -2294.86058126064, -2916.742365592625, -0.03200000151991844, 0.01600000075995922, -0.9760000463575125, 0.0, 0.0, 0.0, 0.0, 0.0, 1.7011942214730232E9, 0.0, 2023-11-28 15:57:01.473
49.0, -1997.7535790307447, -3131.6575864963233, -2260.416102668736, -2897.5828581196256, -0.03200000151991844, 0.01600000075995922, -0.9760000463575125, 0.0, 0.0, 0.0, 0.0, 0.0, 1.7011942214730232E9, 0.0, 2023-11-28 15:57:01.473
50.0, -1994.1744947731495, -3206.2723305122927, -2288.9253600309603, -2994.5248048710637, -0.03200000151991844, 0.01600000075995922, -0.9760000463575125, 0.0, 0.0, 0.0, 0.0, 0.0, 1.701194221488628E9, 0.0, 2023-11-28 15:57:01.488
50.0, -1978.261220461689, -3168.5703990589827, -2316.2303696074523, -2950.0237352983095, -0.03200000151991844, 0.01600000075995922, -0.9760000463575125, 0.0, 0.0, 0.0, 0.0, 0.0, 1.701194221488628E9, 0.0, 2023-11-28 15:57:01.488
51.0, -1987.3828364536166, -3119.181280244142, -2265.1620357125066, -2876.8899916647933, -0.03200000151991844, 0.01600000075995922, -0.9760000463575125, 0.0, 0.0, 0.0, 0.0, 0.0, 1.7011942214893718E9, 0.0, 2023-11-28 15:57:01.489
51.0, -1992.3494235947728, -3192.614215874113, -2254.507060738746, -2962.425243551377, -0.03200000151991844, 0.01600000075995922, -0.9760000463575125, 0.0, 0.0, 0.0, 0.0, 0.0, 1.7011942214893718E9, 0.0, 2023-11-28 15:57:01.489
52.0, -1984.2001815913245, -3192.4683597758412, -2333.056179508101, -2981.192061529029, -0.03200000151991844, 0.01600000075995922, -0.9760000463575125, 0.0, 0.0, 0.0, 0.0, 0.0, 1.7011942215029607E9, 0.0, 2023-11-28 15:57:01.502
52.0, -1985.363290477544, -3132.1400335906073, -2278.3938017557375, -2883.6928696841933, -0.03200000151991844, 0.01600000075995922, -0.9760000463575125, 0.0, 0.0, 0.0, 0.0, 0.0, 1.7011942215029607E9, 0.0, 2023-11-28 15:57:01.502
53.0, -1994.350270071067, -3154.29894082807, -2246.6869299313985, -2920.964712642599, -0.03200000151991844, 0.01600000075995922, -0.9760000463575125, 0.0, 0.0, 0.0, 0.0, 0.0, 1.7011942215186605E9, 0.0, 2023-11-28 15:57:01.518
53.0, -1988.8787964358926, -3211.9195794453844, -2323.3548790230416, -3000.4226271011867, -0.03200000151991844, 0.01600000075995922, -0.9760000463575125, 0.0, 0.0, 0.0, 0.0, 0.0, 1.7011942215186605E9, 0.0, 2023-11-28 15:57:01.518
54.0, -1986.5862377630547, -3144.504142844118, -2291.4572723009624, -2919.154601064045, -0.03200000151991844, 0.01600000075995922, -0.9760000463575125, 0.0, 0.0, 0.0, 0.0, 0.0, 1.7011942215193431E9, 0.0, 2023-11-28 15:57:01.519
54.0, -2001.9534866809845, -3142.600533766672, -2263.2210276355036, -2901.75284657022, -0.03200000151991844, 0.01600000075995922, -0.9760000463575125, 0.0, 0.0, 0.0, 0.0, 0.0, 1.7011942215193431E9, 0.0, 2023-11-28 15:57:01.519
55.0, -1997.424467834644, -3212.940572133288, -2285.4360333723016, -2989.7040738281794, -0.03200000151991844, 0.01600000075995922, -0.9760000463575125, 0.0, 0.0, 0.0, 0.0, 0.0, 1.7011942215330572E9, 0.0, 2023-11-28 15:57:01.533
55.0, -1977.3262454727665, -3170.53384653572, -2338.5650521428324, -2954.900564840529, -0.03200000151991844, 0.01600000075995922, -0.9760000463575125, 0.0, 0.0, 0.0, 0.0, 0.0, 1.7011942215330572E9, 0.0, 2023-11-28 15:57:01.533
56.0, -1986.896649459377, -3115.0860897926614, -2278.8051907508634, -2879.1301917382516, -0.03200000151991844, 0.01600000075995922, -0.9760000463575125, 0.0, 0.0, 0.0, 0.0, 0.0, 1.7011942215486856E9, 0.0, 2023-11-28 15:57:01.548
56.0, -1989.6192966271192, -3185.1306760627776, -2269.5788575601764, -2960.386998075526, -0.03200000151991844, 0.01600000075995922, -0.9760000463575125, 0.0, 0.0, 0.0, 0.0, 0.0, 1.7011942215486856E9, 0.0, 2023-11-28 15:57:01.548
57.0, -1981.8103855196387, -3183.1896679857746, -2336.639003665652, -2984.5654512890615, -0.03200000151991844, 0.01600000075995922, -0.9760000463575125, 0.0, 0.0, 0.0, 0.0, 0.0, 1.7011942215494163E9, 0.0, 2023-11-28 15:57:01.549
57.0, -1992.9552873875946, -3125.460572269745, -2286.599142258521, -2891.6999954893254, -0.03200000151991844, 0.01600000075995922, -0.9760000463575125, 0.0, 0.0, 0.0, 0.0, 0.0, 1.7011942215494163E9, 0.0, 2023-11-28 15:57:01.549
58.0, -2000.1658145021647, -3155.3049739161506, -2269.414301962126, -2929.5328234410845, -0.03200000151991844, 0.01600000075995922, -0.9760000463575125, 0.0, 0.0, 0.0, 0.0, 0.0, 1.7011942215632243E9, 0.0, 2023-11-28 15:57:01.563
58.0, -1981.0287464288995, -3207.1549469018355, -2320.2470221598633, -3001.8213496846147, -0.03200000151991844, 0.01600000075995922, -0.9760000463575125, 0.0, 0.0, 0.0, 0.0, 0.0, 1.7011942215632243E9, 0.0, 2023-11-28 15:57:01.563
59.0, -1978.4968341588974, -3139.814308299683, -2297.912339624483, -2917.381888485048, -0.03200000151991844, 0.01600000075995922, -0.9760000463575125, 0.0, 0.0, 0.0, 0.0, 0.0, 1.701194221578738E9, 0.0, 2023-11-28 15:57:01.578
59.0, -1995.6966340551153, -3133.146066678688, -2252.7904466590844, -2891.5990181905217, -0.03200000151991844, 0.01600000075995922, -0.9760000463575125, 0.0, 0.0, 0.0, 0.0, 0.0, 1.701194221578738E9, 0.0, 2023-11-28 15:57:01.578
60.0, -1996.4670534459874, -3211.0631423555315, -2287.373301549349, -2992.314523997251, -0.03200000151991844, 0.01600000075995922, -0.9760000463575125, 0.0, 0.0, 0.0, 0.0, 0.0, 1.701194221579462E9, 0.0, 2023-11-28 15:57:01.579
60.0, -1980.2471073381603, -3167.407290172763, -2321.8028205414303, -2945.857486747671, -0.03200000151991844, 0.01600000075995922, -0.9760000463575125, 0.0, 0.0, 0.0, 0.0, 0.0, 1.701194221579462E9, 0.0, 2023-11-28 15:57:01.579
61.0, -2004.5340176504105, -3123.149314097129, -2258.7742865881883, -2878.8646588413976, -0.03200000151991844, 0.01600000075995922, -0.9760000463575125, 0.0, 0.0, 0.0, 0.0, 0.0, 1.7011942215929708E9, 0.0, 2023-11-28 15:57:01.592
61.0, -2009.6614204896614, -3190.8377633951604, -2260.6778956656344, -2957.15572451381, -0.03200000151991844, 0.01600000075995922, -0.9760000463575125, 0.0, 0.0, 0.0, 0.0, 0.0, 1.7011942215929708E9, 0.0, 2023-11-28 15:57:01.592
62.0, -1984.6901084855199, -3193.3921150648966, -2332.622351113241, -2975.5896913954057, -0.03200000151991844, 0.01600000075995922, -0.9760000463575125, 0.0, 0.0, 0.0, 0.0, 0.0, 1.7011942216086807E9, 0.0, 2023-11-28 15:57:01.608
62.0, -1977.3038060730323, -3124.641534179449, -2280.282451233361, -2876.5608804686926, -0.03200000151991844, 0.01600000075995922, -0.9760000463575125, 0.0, 0.0, 0.0, 0.0, 0.0, 1.7011942216086807E9, 0.0, 2023-11-28 15:57:01.608
63.0, -1996.5044524455443, -3171.883950419724, -2260.5694385669194, -2921.3574021379463, -0.03200000151991844, 0.01600000075995922, -0.9760000463575125, 0.0, 0.0, 0.0, 0.0, 0.0, 1.7011942216094449E9, 0.0, 2023-11-28 15:57:01.609
63.0, -1986.7919322606176, -3221.3366475338116, -2324.1776570132934, -3002.5356705761515, -0.03200000151991844, 0.01600000075995922, -0.9760000463575125, 0.0, 0.0, 0.0, 0.0, 0.0, 1.7011942216094449E9, 0.0, 2023-11-28 15:57:01.609
64.0, -1971.989408235997, -3142.94086466264, -2303.7353638554923, -2909.42338137934, -0.03200000151991844, 0.01600000075995922, -0.9760000463575125, 0.0, 0.0, 0.0, 0.0, 0.0, 1.7011942216230674E9, 0.0, 2023-11-28 15:57:01.623
64.0, -1997.353409735486, -3137.2038581306115, -2249.686329695862, -2884.6914229723625, -0.03200000151991844, 0.01600000075995922, -0.9760000463575125, 0.0, 0.0, 0.0, 0.0, 0.0, 1.7011942216230674E9, 0.0, 2023-11-28 15:57:01.623
65.0, -1988.7366802375764, -3205.1653201254085, -2284.164467387367, -2979.423088849988, -0.03200000151991844, 0.01600000075995922, -0.9760000463575125, 0.0, 0.0, 0.0, 0.0, 0.0, 1.701194221638767E9, 0.0, 2023-11-28 15:57:01.638
65.0, -1985.4867071760818, -3171.8315918203443, -2327.644544272218, -2953.946890351828, -0.03200000151991844, 0.01600000075995922, -0.9760000463575125, 0.0, 0.0, 0.0, 0.0, 0.0, 1.701194221638767E9, 0.0, 2023-11-28 15:57:01.638
66.0, -1997.5067456336692, -3126.440426058136, -2267.832324280869, -2869.6757246502675, -0.03200000151991844, 0.01600000075995922, -0.9760000463575125, 0.0, 0.0, 0.0, 0.0, 0.0, 1.7011942216394093E9, 0.0, 2023-11-28 15:57:01.639
66.0, -1996.6316090440378, -3189.0613109162077, -2259.9560949741863, -2955.7383024306037, -0.03200000151991844, 0.01600000075995922, -0.9760000463575125, 0.0, 0.0, 0.0, 0.0, 0.0, 1.7011942216394093E9, 0.0, 2023-11-28 15:57:01.639
67.0, -1986.2309472672641, -3196.3391562299803, -2331.878111022059, -2979.2585332519375, -0.03200000151991844, 0.01600000075995922, -0.9760000463575125, 0.0, 0.0, 0.0, 0.0, 0.0, 1.7011942216693761E9, 0.0, 2023-11-28 15:57:01.669
67.0, -1986.3917629653588, -3129.9559320164844, -2285.4472530721687, -2883.3899377877824, -0.03200000151991844, 0.01600000075995922, -0.9760000463575125, 0.0, 0.0, 0.0, 0.0, 0.0, 1.7011942216693761E9, 0.0, 2023-11-28 15:57:01.669
68.0, -2002.1741407783702, -3168.181449463591, -2257.6261373017915, -2921.7650512331165, -0.03200000151991844, 0.01600000075995922, -0.9760000463575125, 0.0, 0.0, 0.0, 0.0, 0.0, 1.701194221670164E9, 0.0, 2023-11-28 15:57:01.670
68.0, -1998.1799276256934, -3228.1283058533445, -2320.875325352419, -2994.135855275672, -0.03200000151991844, 0.01600000075995922, -0.9760000463575125, 0.0, 0.0, 0.0, 0.0, 0.0, 1.701194221670164E9, 0.0, 2023-11-28 15:57:01.670
69.0, -1986.4815205642954, -3151.0040889671072, -2306.8918394180946, -2913.6831274288706, -0.03200000151991844, 0.01600000075995922, -0.9760000463575125, 0.0, 0.0, 0.0, 0.0, 0.0, 1.7011942216707757E9, 0.0, 2023-11-28 15:57:01.670
69.0, -2005.7120861364529, -3147.4698835089803, -2262.925575539004, -2899.9015960921533, -0.03200000151991844, 0.01600000075995922, -0.9760000463575125, 0.0, 0.0, 0.0, 0.0, 0.0, 1.7011942216707757E9, 0.0, 2023-11-28 15:57:01.670
70.0, -1997.83585682977, -3216.590714490041, -2297.2690768321045, -2998.040310829412, -0.03200000151991844, 0.01600000075995922, -0.9760000463575125, 0.0, 0.0, 0.0, 0.0, 0.0, 1.701194221683059E9, 0.0, 2023-11-28 15:57:01.683
70.0, -1991.4219284057617, -3189.203427114524, -2338.785706240218, -2962.9862285447307, -0.03200000151991844, 0.01600000075995922, -0.9760000463575125, 0.0, 0.0, 0.0, 0.0, 0.0, 1.701194221683059E9, 0.0, 2023-11-28 15:57:01.683
71.0, -1999.365475911647, -3135.980910845101, -2278.4312007552944, -2888.655716925394, -0.03200000151991844, 0.01600000075995922, -0.9760000463575125, 0.0, 0.0, 0.0, 0.0, 0.0, 1.7011942216986568E9, 0.0, 2023-11-28 15:57:01.698
71.0, -2015.7836367171258, -3204.5856356322765, -2272.4211815265007, -2973.2784332227893, -0.03200000151991844, 0.01600000075995922, -0.9760000463575125, 0.0, 0.0, 0.0, 0.0, 0.0, 1.7011942216986568E9, 0.0, 2023-11-28 15:57:01.698
72.0, -1995.2964647598565, -3218.8795332629234, -2341.4859140082262, -2999.4352935128845, -0.01600000075995922, 0.01600000075995922, -0.9760000463575125, 0.0, 0.0, 0.0, 0.0, 0.0, 1.7011942216993804E9, 0.0, 2023-11-28 15:57:01.699
72.0, -1999.4926325101405, -3133.953885069117, -2283.053717100527, -2897.3921232218854, -0.01600000075995922, 0.01600000075995922, -0.9760000463575125, 0.0, 0.0, 0.0, 0.0, 0.0, 1.7011942216993804E9, 0.0, 2023-11-28 15:57:01.699
73.0, -2011.7258452652022, -3176.2932924674824, -2255.01568713272, -2930.912846524734, -0.01600000075995922, 0.01600000075995922, -0.9760000463575125, 0.0, 0.0, 0.0, 0.0, 0.0, 1.7011942217132535E9, 0.0, 2023-11-28 15:57:01.713
73.0, -1998.1313089262694, -3229.2839349396527, -2318.7847212771885, -3005.112461645622, -0.01600000075995922, 0.01600000075995922, -0.9760000463575125, 0.0, 0.0, 0.0, 0.0, 0.0, 1.7011942217132535E9, 0.0, 2023-11-28 15:57:01.713
74.0, -1995.5694774566218, -3162.934369825758, -2309.8089613835327, -2927.6030350639485, -0.01600000075995922, 0.01600000075995922, -0.9760000463575125, 0.0, 0.0, 0.0, 0.0, 0.0, 1.7011942217286804E9, 0.0, 2023-11-28 15:57:01.728
74.0, -2006.7629980240017, -3144.698617641814, -2260.236587470863, -2897.627736919094, -0.01600000075995922, 0.01600000075995922, -0.9760000463575125, 0.0, 0.0, 0.0, 0.0, 0.0, 1.7011942217286804E9, 0.0, 2023-11-28 15:57:01.728
75.0, -2005.2558183418587, -3220.412892244756, -2293.693732474465, -2996.0132850534283, -0.01600000075995922, 0.01600000075995922, -0.9760000463575125, 0.0, 0.0, 0.0, 0.0, 0.0, 1.701194221729426E9, 0.0, 2023-11-28 15:57:01.729
75.0, -2001.9086078815162, -3195.449060040526, -2326.208422689233, -2962.802973446902, -0.01600000075995922, 0.01600000075995922, -0.9760000463575125, 0.0, 0.0, 0.0, 0.0, 0.0, 1.701194221729426E9, 0.0, 2023-11-28 15:57:01.729
76.0, -2005.8654220346361, -3149.1902374885976, -2268.741119970102, -2884.6764633725397, -0.01600000075995922, 0.01600000075995922, -0.9760000463575125, 0.0, 0.0, 0.0, 0.0, 0.0, 1.7011942217429984E9, 0.0, 2023-11-28 15:57:01.742
76.0, -2010.7983500761911, -3213.7633501235396, -2247.2030361252837, -2965.8472520108335, -0.01600000075995922, 0.01600000075995922, -0.9760000463575125, 0.0, 0.0, 0.0, 0.0, 0.0, 1.7011942217429984E9, 0.0, 2023-11-28 15:57:01.742
77.0, -1999.245799113065, -3224.336047298275, -2342.3535707979463, -2989.745212727692, -0.01600000075995922, 0.01600000075995922, -0.9760000463575125, 0.0, 0.0, 0.0, 0.0, 0.0, 1.7011942217586644E9, 0.0, 2023-11-28 15:57:01.758
77.0, -2002.2713781772181, -3156.30352720432, -2277.051177671645, -2894.2431274591945, -0.01600000075995922, 0.01600000075995922, -0.9760000463575125, 0.0, 0.0, 0.0, 0.0, 0.0, 1.7011942217586644E9, 0.0, 2023-11-28 15:57:01.758
78.0, -2016.793409705162, -3198.0707299094647, -2263.217287735548, -2933.661672992166, -0.01600000075995922, 0.01600000075995922, -0.9760000463575125, 0.0, 0.0, 0.0, 0.0, 0.0, 1.7011942217593665E9, 0.0, 2023-11-28 15:57:01.759
78.0, -2009.0555566968396, -3237.990422036499, -2324.45814950997, -3011.358094571624, -0.01600000075995922, 0.01600000075995922, -0.9760000463575125, 0.0, 0.0, 0.0, 0.0, 0.0, 1.7011942217593665E9, 0.0, 2023-11-28 15:57:01.759
79.0, -2006.2955105295405, -3180.324904619716, -2316.451023704838, -2932.0198569116183, -0.01600000075995922, 0.01600000075995922, -0.9760000463575125, 0.0, 0.0, 0.0, 0.0, 0.0, 1.7011942217730148E9, 0.0, 2023-11-28 15:57:01.773
79.0, -2009.6315012900159, -3163.476655319333, -2261.1566028599627, -2906.1584487180226, -0.01600000075995922, 0.01600000075995922, -0.9760000463575125, 0.0, 0.0, 0.0, 0.0, 0.0, 1.7011942217730148E9, 0.0, 2023-11-28 15:57:01.773
80.0, -2012.645860654302, -3226.0564012778923, -2299.879527001176, -2996.6378483460285, -0.01600000075995922, 0.01600000075995922, -0.9920000471174717, 0.0, 0.0, 0.0, 0.0, 0.0, 1.7011942217887628E9, 0.0, 2023-11-28 15:57:01.788
80.0, -1995.5844370564446, -3192.760071972385, -2329.9146635453217, -2959.848452481907, -0.01600000075995922, 0.01600000075995922, -0.9920000471174717, 0.0, 0.0, 0.0, 0.0, 0.0, 1.7011942217887628E9, 0.0, 2023-11-28 15:57:01.788
81.0, -2004.61255554948, -3139.6422729017213, -2275.989046084229, -2877.338779659476, -0.01600000075995922, 0.01600000075995922, -0.9920000471174717, 0.0, 0.0, 0.0, 0.0, 0.0, 1.701194221789372E9, 0.0, 2023-11-28 15:57:01.789
81.0, -2018.5100237848237, -3214.178479018621, -2272.9784266198985, -2958.1430581021123, -0.01600000075995922, 0.01600000075995922, -0.9920000471174717, 0.0, 0.0, 0.0, 0.0, 0.0, 1.701194221789372E9, 0.0, 2023-11-28 15:57:01.789
82.0, -1998.2584655247629, -3225.876886080019, -2335.689069076907, -2984.415855290834, -0.03200000151991844, 0.01600000075995922, -0.9920000471174717, 0.0, 0.0, 0.0, 0.0, 0.0, 1.701194221803049E9, 0.0, 2023-11-28 15:57:01.803
82.0, -1996.3660761471838, -3151.1723844651133, -2284.841389279347, -2893.7345010652207, -0.03200000151991844, 0.01600000075995922, -0.9920000471174717, 0.0, 0.0, 0.0, 0.0, 0.0, 1.701194221803049E9, 0.0, 2023-11-28 15:57:01.803
83.0, -2018.8540945807472, -3183.365443283692, -2247.659303919878, -2932.7640970028006, -0.03200000151991844, 0.01600000075995922, -0.9920000471174717, 0.0, 0.0, 0.0, 0.0, 0.0, 1.701194221818418E9, 0.0, 2023-11-28 15:57:01.818
83.0, -1999.2270996132866, -3228.640672147274, -2311.469476963859, -3003.5828425637446, -0.03200000151991844, 0.01600000075995922, -0.9920000471174717, 0.0, 0.0, 0.0, 0.0, 0.0, 1.701194221818418E9, 0.0, 2023-11-28 15:57:01.818
84.0, -1993.6060299798846, -3163.334539121017, -2319.6561179668643, -2921.5967557351105, -0.03200000151991844, 0.01600000075995922, -0.9920000471174717, 0.0, 0.0, 0.0, 0.0, 0.0, 1.7011942218337052E9, 0.0, 2023-11-28 15:57:01.833
84.0, -2009.122874896042, -3155.7313225110993, -2270.2258602525108, -2898.1401032130234, -0.03200000151991844, 0.01600000075995922, -0.9920000471174717, 0.0, 0.0, 0.0, 0.0, 0.0, 1.7011942218337052E9, 0.0, 2023-11-28 15:57:01.833
85.0, -2007.8288695113733, -3222.211784123443, -2297.6281072278507, -2997.7934774323367, -0.03200000151991844, 0.01600000075995922, -0.9920000471174717, 0.0, 0.0, 0.0, 0.0, 0.0, 1.7011942218344512E9, 0.0, 2023-11-28 15:57:01.834
85.0, -1993.4489541817456, -3179.1019573342055, -2330.464428838808, -2961.1312381667085, -0.03200000151991844, 0.01600000075995922, -0.9920000471174717, 0.0, 0.0, 0.0, 0.0, 0.0, 1.7011942218344512E9, 0.0, 2023-11-28 15:57:01.834
86.0, -1996.3772958470508, -3135.1431732550263, -2274.2948714043014, -2880.5513537214138, -0.03200000151991844, 0.01600000075995922, -0.9920000471174717, 0.0, 0.0, 0.0, 0.0, 0.0, 1.7011942218487232E9, 0.0, 2023-11-28 15:57:01.848
86.0, -2012.6496005542576, -3203.265450947918, -2267.5144327846356, -2959.003235091921, -0.03200000151991844, 0.01600000075995922, -0.9920000471174717, 0.0, 0.0, 0.0, 0.0, 0.0, 1.7011942218487232E9, 0.0, 2023-11-28 15:57:01.848
87.0, -2003.7748179594055, -3221.8116148281842, -2341.766406504903, -2991.11775601143, -0.03200000151991844, 0.01600000075995922, -0.9920000471174717, 0.0, 0.0, 0.0, 0.0, 0.0, 1.7011942218493805E9, 0.0, 2023-11-28 15:57:01.849
87.0, -1999.5524709094316, -3139.8180481996387, -2288.6560872341506, -2894.022473361809, -0.03200000151991844, 0.01600000075995922, -0.9920000471174717, 0.0, 0.0, 0.0, 0.0, 0.0, 1.7011942218493805E9, 0.0, 2023-11-28 15:57:01.849
88.0, -2017.7022053943947, -3177.9463282478973, -2257.3830438046716, -2928.4370327540673, -0.03200000151991844, 0.01600000075995922, -0.9920000471174717, 0.0, 0.0, 0.0, 0.0, 0.0, 1.7011942218630047E9, 0.0, 2023-11-28 15:57:01.863
88.0, -2001.1494081905112, -3229.6728845350444, -2327.8165796701796, -3007.8687679129653, -0.03200000151991844, 0.01600000075995922, -0.9920000471174717, 0.0, 0.0, 0.0, 0.0, 0.0, 1.7011942218630047E9, 0.0, 2023-11-28 15:57:01.863
89.0, -1991.1002970095724, -3166.7303682807833, -2304.184151850175, -2931.5149704176, -0.03200000151991844, 0.01600000075995922, -0.9920000471174717, 0.0, 0.0, 0.0, 0.0, 0.0, 1.7011942218786893E9, 0.0, 2023-11-28 15:57:01.878
89.0, -2015.720058417879, -3154.1942236293107, -2264.361697121989, -2896.879756927956, -0.03200000151991844, 0.01600000075995922, -0.9920000471174717, 0.0, 0.0, 0.0, 0.0, 0.0, 1.7011942218786893E9, 0.0, 2023-11-28 15:57:01.878
90.0, -2014.9346794271842, -3222.716670617461, -2297.0147636351176, -2995.736532456707, -0.03200000151991844, 0.01600000075995922, -0.9920000471174717, 0.0, 0.0, 0.0, 0.0, 0.0, 1.7011942218794029E9, 0.0, 2023-11-28 15:57:01.879
90.0, -2001.54957748577, -3195.1760473437607, -2332.4016970158555, -2964.7402416239493, -0.03200000151991844, 0.01600000075995922, -0.9920000471174717, 0.0, 0.0, 0.0, 0.0, 0.0, 1.7011942218794029E9, 0.0, 2023-11-28 15:57:01.879
91.0, -1993.5611511804163, -3131.8371016941965, -2271.1084766420536, -2879.1825503376313, -0.03200000151991844, 0.01600000075995922, -0.9920000471174717, 0.0, 0.0, 0.0, 0.0, 0.0, 1.7011942218930113E9, 0.0, 2023-11-28 15:57:01.893
91.0, -2016.3857606099918, -3203.19439284876, -2264.675848718267, -2963.655670636799, -0.03200000151991844, 0.01600000075995922, -0.9920000471174717, 0.0, 0.0, 0.0, 0.0, 0.0, 1.7011942218930113E9, 0.0, 2023-11-28 15:57:01.893
92.0, -1991.455587505363, -3217.435931880027, -2345.697041358333, -2988.6419422407635, -0.03200000151991844, 0.01600000075995922, -0.9920000471174717, 0.0, 0.0, 0.0, 0.0, 0.0, 1.7011942219087093E9, 0.0, 2023-11-28 15:57:01.908
92.0, -1996.6203893441707, -3130.494477610104, -2295.137333857361, -2886.954062445555, -0.03200000151991844, 0.01600000075995922, -0.9920000471174717, 0.0, 0.0, 0.0, 0.0, 0.0, 1.7011942219087093E9, 0.0, 2023-11-28 15:57:01.908
93.0, -2006.4488464277238, -3160.5146545544267, -2249.476895298343, -2921.9857053305022, -0.03200000151991844, 0.01600000075995922, -0.9920000471174717, 0.0, 0.0, 0.0, 0.0, 0.0, 1.7011942219093912E9, 0.0, 2023-11-28 15:57:01.909
93.0, -1998.666114619933, -3220.304435146041, -2333.9350559976883, -3001.5483369878493, -0.03200000151991844, 0.01600000075995922, -0.9920000471174717, 0.0, 0.0, 0.0, 0.0, 0.0, 1.7011942219093912E9, 0.0, 2023-11-28 15:57:01.909
94.0, -1984.0917244926095, -3155.132938518189, -2305.235063737724, -2915.0930697121657, -0.03200000151991844, 0.01600000075995922, -0.9920000471174717, 0.0, 0.0, 0.0, 0.0, 0.0, 1.7011942219230506E9, 0.0, 2023-11-28 15:57:01.923
94.0, -2006.4413666278124, -3153.7753548342735, -2264.492593620438, -2890.327452205587, -0.03200000151991844, 0.01600000075995922, -0.9920000471174717, 0.0, 0.0, 0.0, 0.0, 0.0, 1.7011942219230506E9, 0.0, 2023-11-28 15:57:01.923
95.0, -2006.639581325464, -3222.548375119455, -2302.9350252649747, -2987.7967248507775, -0.03200000151991844, 0.01600000075995922, -0.9920000471174717, 0.0, 0.0, 0.0, 0.0, 0.0, 1.701194221938749E9, 0.0, 2023-11-28 15:57:01.938
95.0, -1984.66392918583, -3187.621449433267, -2334.2342479941435, -2951.9909226750024, -0.03200000151991844, 0.01600000075995922, -0.9920000471174717, 0.0, 0.0, 0.0, 0.0, 0.0, 1.701194221938749E9, 0.0, 2023-11-28 15:57:01.938
96.0, -1990.1840215204284, -3120.265851231292, -2275.386922191363, -2881.7705611069687, -0.03200000151991844, 0.01600000075995922, -0.9920000471174717, 0.0, 0.0, 0.0, 0.0, 0.0, 1.7011942219393785E9, 0.0, 2023-11-28 15:57:01.939
96.0, -2000.68192069605, -3189.8579096067697, -2259.9560949741863, -2960.1551242782734, -0.03200000151991844, 0.01600000075995922, -0.9920000471174717, 0.0, 0.0, 0.0, 0.0, 0.0, 1.7011942219393785E9, 0.0, 2023-11-28 15:57:01.939
97.0, -1982.8388580074534, -3199.746205089614, -2333.639603901189, -2984.580410888884, -0.03200000151991844, 0.01600000075995922, -0.9920000471174717, 0.0, 0.0, 0.0, 0.0, 0.0, 1.7011942219530113E9, 0.0, 2023-11-28 15:57:01.953
97.0, -1985.7709395727143, -3132.734677683562, -2285.578149570618, -2894.3291451581754, -0.03200000151991844, 0.01600000075995922, -0.9920000471174717, 0.0, 0.0, 0.0, 0.0, 0.0, 1.7011942219530113E9, 0.0, 2023-11-28 15:57:01.953
98.0, -1989.4360415292904, -3159.415123967454, -2251.2944866768084, -2920.893654543441, -0.03200000151991844, 0.01600000075995922, -0.9920000471174717, 0.0, 0.0, 0.0, 0.0, 0.0, 1.7011942219686875E9, 0.0, 2023-11-28 15:57:01.968
98.0, -1981.0773651283234, -3211.9532385449857, -2317.778688189108, -2999.334316214081, -0.03200000151991844, 0.01600000075995922, -0.9920000471174717, 0.0, 0.0, 0.0, 0.0, 0.0, 1.7011942219686875E9, 0.0, 2023-11-28 15:57:01.968
99.0, -1979.6038445457816, -3150.996609167196, -2301.0912545868196, -2912.5873367418535, -0.03200000151991844, 0.01600000075995922, -0.9920000471174717, 0.0, 0.0, 0.0, 0.0, 0.0, 1.701194221969769E9, 0.0, 2023-11-28 15:57:01.969
99.0, -1985.1688156798482, -3128.164519937709, -2253.9086767458357, -2888.412623428274, -0.03200000151991844, 0.01600000075995922, -0.9920000471174717, 0.0, 0.0, 0.0, 0.0, 0.0, 1.701194221969769E9, 0.0, 2023-11-28 15:57:01.969
100.0, -1985.037919181399, -3204.581895732321, -2295.369207654614, -2990.672707916703, -0.03200000151991844, 0.01600000075995922, -0.9920000471174717, 0.0, 0.0, 0.0, 0.0, 0.0, 1.7011942220000749E9, 0.0, 2023-11-28 15:57:02.000
100.0, -1986.3319245660678, -3175.5565321762115, -2336.3098924695514, -2955.169837637339, -0.03200000151991844, 0.01600000075995922, -0.9920000471174717, 0.0, 0.0, 0.0, 0.0, 0.0, 1.7011942220000749E9, 0.0, 2023-11-28 15:57:02.000
0.0, -1995.472240057774, -3131.9231193931773, -2269.848130356986, -2871.900965123903, -0.03200000151991844, 0.01600000075995922, -0.9920000471174717, 0.0, 0.0, 0.0, 0.0, 0.0, 1.7011942220008008E9, 0.0, 2023-11-28 15:57:02.000
1.0, -2005.1286617433652, -3203.033577150665, -2251.1374108786695, -2952.9558168635704, -0.03200000151991844, 0.01600000075995922, -0.9920000471174717, 0.0, 0.0, 0.0, 0.0, 0.0, 1.701194222001551E9, 0.0, 2023-11-28 15:57:02.001
1.0, -2003.3035905649886, -3230.8172939214855, -2336.7811198639683, -2989.2291065338068, -0.03200000151991844, 0.01600000075995922, -0.9920000471174717, 0.0, 0.0, 0.0, 0.0, 0.0, 1.701194222001551E9, 0.0, 2023-11-28 15:57:02.001
2.0, -1994.4400276700035, -3149.814800781198, -2279.990739036817, -2888.4911613273434, -0.03200000151991844, 0.01600000075995922, -0.9920000471174717, 0.0, 0.0, 0.0, 0.0, 0.0, 1.7011942220023503E9, 0.0, 2023-11-28 15:57:02.002
2.0, -2006.542343926616, -3180.878409813158, -2249.6788498959504, -2914.2291528224014, -0.03200000151991844, 0.01600000075995922, -0.9920000471174717, 0.0, 0.0, 0.0, 0.0, 0.0, 1.7011942220023503E9, 0.0, 2023-11-28 15:57:02.002
3.0, -2001.321443588473, -3236.131691758521, -2312.748522748705, -3000.2468518032692, -0.03200000151991844, 0.01600000075995922, -0.9920000471174717, 0.0, 0.0, 0.0, 0.0, 0.0, 1.701194222013064E9, 0.0, 2023-11-28 15:57:02.013
3.0, -2000.2144332015887, -3171.341664926149, -2300.036602799315, -2909.711353675928, -0.03200000151991844, 0.01600000075995922, -0.9920000471174717, 0.0, 0.0, 0.0, 0.0, 0.0, 1.701194222013064E9, 0.0, 2023-11-28 15:57:02.013
4.0, -2013.9510857388377, -3157.133784994483, -2249.48811499821, -2885.431923163589, -0.03200000151991844, 0.01600000075995922, -0.9920000471174717, 0.0, 0.0, 0.0, 0.0, 0.0, 1.701194222028108E9, 0.0, 2023-11-28 15:57:02.028
4.0, -2017.2795966994017, -3237.0629268474877, -2283.5660833944567, -2983.9857667959295, -0.03200000151991844, 0.01600000075995922, -0.9920000471174717, 0.0, 0.0, 0.0, 0.0, 0.0, 1.701194222028108E9, 0.0, 2023-11-28 15:57:02.028
5.0, -1993.8266840772703, -3194.9853124460205, -2323.010808227118, -2949.9863362987526, -0.03200000151991844, 0.01600000075995922, -0.9920000471174717, 0.0, 0.0, 0.0, 0.0, 0.0, 1.701194222043728E9, 0.0, 2023-11-28 15:57:02.043
5.0, -2000.3004509005696, -3133.131107078865, -2275.5327782896347, -2873.105212909635, -0.03200000151991844, 0.01600000075995922, -0.9920000471174717, 0.0, 0.0, 0.0, 0.0, 0.0, 1.701194222043728E9, 0.0, 2023-11-28 15:57:02.043
6.0, -2009.5641830908135, -3207.0801489027217, -2257.753293900285, -2945.917325146962, -0.03200000151991844, 0.01600000075995922, -0.9920000471174717, 0.0, 0.0, 0.0, 0.0, 0.0, 1.7011942220444376E9, 0.0, 2023-11-28 15:57:02.044
6.0, -1987.427715253085, -3215.835254698992, -2334.496040991042, -2980.660995735321, -0.03200000151991844, 0.01600000075995922, -0.9920000471174717, 0.0, 0.0, 0.0, 0.0, 0.0, 1.7011942220444376E9, 0.0, 2023-11-28 15:57:02.044
7.0, -1999.559950709343, -3139.522596103139, -2278.5508775538765, -2889.0072675212286, -0.03200000151991844, 0.01600000075995922, -0.9920000471174717, 0.0, 0.0, 0.0, 0.0, 0.0, 1.7011942220580664E9, 0.0, 2023-11-28 15:57:02.058
7.0, -2004.2909241532907, -3168.675116257742, -2255.494394327048, -2918.61231557047, -0.03200000151991844, 0.01600000075995922, -0.9920000471174717, 0.0, 0.0, 0.0, 0.0, 0.0, 1.7011942220580664E9, 0.0, 2023-11-28 15:57:02.058
8.0, -1999.5038522100076, -3227.219510164112, -2321.1857370487414, -3000.7853973968886, -0.03200000151991844, 0.01600000075995922, -0.9920000471174717, 0.0, 0.0, 0.0, 0.0, 0.0, 1.701194222073675E9, 0.0, 2023-11-28 15:57:02.073
8.0, -1982.1581962155178, -3161.7376018399373, -2318.8557793763466, -2921.7762709329836, -0.03200000151991844, 0.01600000075995922, -0.9920000471174717, 0.0, 0.0, 0.0, 0.0, 0.0, 1.701194222073675E9, 0.0, 2023-11-28 15:57:02.073
9.0, -1996.616649444215, -3143.6589254541323, -2257.7794731999747, -2889.8674445110373, -0.03200000151991844, 0.01600000075995922, -0.9920000471174717, 0.0, 0.0, 0.0, 0.0, 0.0, 1.7011942220743651E9, 0.0, 2023-11-28 15:57:02.074
9.0, -2002.7650449713692, -3224.87833279185, -2301.304428884294, -2983.0208726073615, -0.03200000151991844, 0.01600000075995922, -0.9920000471174717, 0.0, 0.0, 0.0, 0.0, 0.0, 1.7011942220743651E9, 0.0, 2023-11-28 15:57:02.074
10.0, -2000.042397803627, -3195.4901989400387, -2331.982828220818, -2955.6410650317557, -0.03200000151991844, 0.01600000075995922, -0.9920000471174717, 0.0, 0.0, 0.0, 0.0, 0.0, 1.7011942221043496E9, 0.0, 2023-11-28 15:57:02.104
10.0, -2000.9063146933913, -3131.758563795127, -2274.2312931050546, -2883.7153090839274, -0.03200000151991844, 0.01600000075995922, -0.9920000471174717, 0.0, 0.0, 0.0, 0.0, 0.0, 1.7011942221043496E9, 0.0, 2023-11-28 15:57:02.104
11.0, -2012.006337761879, -3200.3857279820368, -2274.0667375070043, -2969.0448664729483, -0.03200000151991844, 0.03200000151991844, -0.9920000471174717, 0.0, 0.0, 0.0, 0.0, 0.0, 1.701194222105156E9, 0.0, 2023-11-28 15:57:02.105
11.0, -1994.4475074699149, -3214.1485598189756, -2345.614763559308, -2995.2989641618915, -0.03200000151991844, 0.03200000151991844, -0.9920000471174717, 0.0, 0.0, 0.0, 0.0, 0.0, 1.701194222105156E9, 0.0, 2023-11-28 15:57:02.105
12.0, -1997.8994351290166, -3137.1440197313204, -2289.736918321345, -2892.429275980685, -0.01600000075995922, 0.03200000151991844, -0.9920000471174717, 0.0, 0.0, 0.0, 0.0, 0.0, 1.7011942221057763E9, 0.0, 2023-11-28 15:57:02.105
12.0, -2012.6907394537702, -3179.07203813456, -2273.3673762152903, -2923.9491528072394, -0.01600000075995922, 0.03200000151991844, -0.9920000471174717, 0.0, 0.0, 0.0, 0.0, 0.0, 1.7011942221057763E9, 0.0, 2023-11-28 15:57:02.105
13.0, -2008.3113166056573, -3227.3653662623838, -2323.4857755214907, -3001.6792334862985, -0.01600000075995922, 0.03200000151991844, -0.9920000471174717, 0.0, 0.0, 0.0, 0.0, 0.0, 1.7011942221180568E9, 0.0, 2023-11-28 15:57:02.118
13.0, -1986.896649459377, -3163.648690717295, -2301.6821587798186, -2913.4662132314406, -0.01600000075995922, 0.03200000151991844, -0.9920000471174717, 0.0, 0.0, 0.0, 0.0, 0.0, 1.7011942221180568E9, 0.0, 2023-11-28 15:57:02.118
14.0, -1999.5188118098304, -3141.381326381117, -2259.5297463792376, -2884.43336987542, -0.01600000075995922, 0.03200000151991844, -0.9920000471174717, 0.0, 0.0, 0.0, 0.0, 0.0, 1.7011942221337E9, 0.0, 2023-11-28 15:57:02.133
14.0, -2003.262451665476, -3216.9946236852556, -2280.368468932342, -2978.3534774626605, -0.01600000075995922, 0.03200000151991844, -0.9920000471174717, 0.0, 0.0, 0.0, 0.0, 0.0, 1.7011942221337E9, 0.0, 2023-11-28 15:57:02.133
15.0, -1984.0393658932298, -3183.548698381521, -2321.1258986494504, -2952.5593874682672, -0.01600000075995922, 0.03200000151991844, -0.9920000471174717, 0.0, 0.0, 0.0, 0.0, 0.0, 1.701194222134379E9, 0.0, 2023-11-28 15:57:02.134
15.0, -1994.1483154734597, -3131.3434349000454, -2266.64303609496, -2877.2116230609827, -0.01600000075995922, 0.03200000151991844, -0.9920000471174717, 0.0, 0.0, 0.0, 0.0, 0.0, 1.701194222134379E9, 0.0, 2023-11-28 15:57:02.134
16.0, -2005.1698006428778, -3196.0100450338796, -2263.3668837337755, -2947.3085679304786, -0.01600000075995922, 0.03200000151991844, -0.9920000471174717, 0.0, 0.0, 0.0, 0.0, 0.0, 1.701194222147983E9, 0.0, 2023-11-28 15:57:02.147
16.0, -1998.0714705269784, -3218.1203335719183, -2340.090931324754, -2979.4043893502094, -0.01600000075995922, 0.03200000151991844, -0.9920000471174717, 0.0, 0.0, 0.0, 0.0, 0.0, 1.701194222147983E9, 0.0, 2023-11-28 15:57:02.147
17.0, -1995.131909161806, -3137.753623424098, -2292.2538709915243, -2878.629045144189, -0.01600000075995922, 0.03200000151991844, -0.9920000471174717, 0.0, 0.0, 0.0, 0.0, 0.0, 1.7011942221800597E9, 0.0, 2023-11-28 15:57:02.180
17.0, -2002.3125170767307, -3170.7806799327955, -2249.1216048025526, -2914.9359939140268, -0.01600000075995922, 0.03200000151991844, -0.9920000471174717, 0.0, 0.0, 0.0, 0.0, 0.0, 1.7011942221800597E9, 0.0, 2023-11-28 15:57:02.180
18.0, -2004.118888755329, -3226.9577171672136, -2318.1077993852086, -2994.629522069823, -0.01600000075995922, 0.03200000151991844, -0.9920000471174717, 0.0, 0.0, 0.0, 0.0, 0.0, 1.7011942221807616E9, 0.0, 2023-11-28 15:57:02.180
18.0, -1987.5062531521544, -3158.3230731803924, -2315.609546214808, -2916.7348857927136, -0.01600000075995922, 0.03200000151991844, -0.9920000471174717, 0.0, 0.0, 0.0, 0.0, 0.0, 1.7011942221807616E9, 0.0, 2023-11-28 15:57:02.180
19.0, -2002.5518706738949, -3146.231976623647, -2257.1810892070644, -2887.664643437136, -0.01600000075995922, 0.03200000151991844, -0.9920000471174717, 0.0, 0.0, 0.0, 0.0, 0.0, 1.7011942221815336E9, 0.0, 2023-11-28 15:57:02.181
19.0, -2006.7517783241346, -3225.9591638790444, -2296.3752407426946, -2988.6643816404976, -0.01600000075995922, 0.03200000151991844, -0.9920000471174717, 0.0, 0.0, 0.0, 0.0, 0.0, 1.7011942221815336E9, 0.0, 2023-11-28 15:57:02.181
20.0, -1989.6492158267647, -3182.59502389282, -2322.397464634385, -2954.006728751119, -0.01600000075995922, 0.03200000151991844, -0.9760000463575125, 0.0, 0.0, 0.0, 0.0, 0.0, 1.701194222182354E9, 0.0, 2023-11-28 15:57:02.182
20.0, -1996.3548564473167, -3127.0014110514894, -2268.692501270678, -2874.2084833965637, -0.01600000075995922, 0.03200000151991844, -0.9760000463575125, 0.0, 0.0, 0.0, 0.0, 0.0, 1.701194222182354E9, 0.0, 2023-11-28 15:57:02.182
21.0, -2002.5817898735404, -3193.784804560244, -2260.5058602676727, -2950.8165940889157, -0.01600000075995922, 0.01600000075995922, -0.9760000463575125, 0.0, 0.0, 0.0, 0.0, 0.0, 1.7011942221930835E9, 0.0, 2023-11-28 15:57:02.193
21.0, -1990.5430519161746, -3213.733430923894, -2337.218688158784, -2985.7210803753696, -0.01600000075995922, 0.01600000075995922, -0.9760000463575125, 0.0, 0.0, 0.0, 0.0, 0.0, 1.7011942221930835E9, 0.0, 2023-11-28 15:57:02.193
22.0, -1985.9280153708532, -3139.0476288087666, -2299.479357705917, -2878.557987045031, -0.03200000151991844, 0.01600000075995922, -0.9760000463575125, 0.0, 0.0, 0.0, 0.0, 0.0, 1.701194222207958E9, 0.0, 2023-11-28 15:57:02.207
22.0, -2004.6948333485052, -3171.8989100195467, -2257.801912599709, -2912.751892339904, -0.03200000151991844, 0.01600000075995922, -0.9760000463575125, 0.0, 0.0, 0.0, 0.0, 0.0, 1.701194222207958E9, 0.0, 2023-11-28 15:57:02.207
23.0, -1997.7199199311435, -3211.94949864503, -2321.9187574400567, -2998.249745226931, -0.03200000151991844, 0.01600000075995922, -0.9760000463575125, 0.0, 0.0, 0.0, 0.0, 0.0, 1.7011942222237024E9, 0.0, 2023-11-28 15:57:02.223
23.0, -1983.6354566980153, -3161.7862205393612, -2322.74901523022, -2920.841295944061, -0.03200000151991844, 0.01600000075995922, -0.9760000463575125, 0.0, 0.0, 0.0, 0.0, 0.0, 1.7011942222237024E9, 0.0, 2023-11-28 15:57:02.223
24.0, -2001.5233981860802, -3134.5260897623375, -2266.7664527934976, -2890.162896607537, -0.03200000151991844, 0.01600000075995922, -0.9760000463575125, 0.0, 0.0, 0.0, 0.0, 0.0, 1.7011942222244418E9, 0.0, 2023-11-28 15:57:02.224
24.0, -1996.036964951083, -3209.1296140784398, -2294.6661064629443, -2992.4416805957444, -0.03200000151991844, 0.01600000075995922, -0.9760000463575125, 0.0, 0.0, 0.0, 0.0, 0.0, 1.7011942222244418E9, 0.0, 2023-11-28 15:57:02.224
25.0, -1988.029839145951, -3181.039225511253, -2334.2342479941435, -2965.4358630157076, -0.03200000151991844, 0.01600000075995922, -0.9760000463575125, 0.0, 0.0, 0.0, 0.0, 0.0, 1.7011942222543833E9, 0.0, 2023-11-28 15:57:02.254
25.0, -1990.236380119808, -3123.968352187425, -2279.8261834387667, -2884.481988574844, -0.03200000151991844, 0.01600000075995922, -0.9760000463575125, 0.0, 0.0, 0.0, 0.0, 0.0, 1.7011942222543833E9, 0.0, 2023-11-28 15:57:02.254
26.0, -2004.8369495468214, -3192.00087228138, -2270.0613046544604, -2961.292053864803, -0.03200000151991844, 0.01600000075995922, -0.9760000463575125, 0.0, 0.0, 0.0, 0.0, 0.0, 1.7011942222551668E9, 0.0, 2023-11-28 15:57:02.255
26.0, -1988.0485386457294, -3205.0456433268264, -2341.8786035035737, -2996.473292747978, -0.03200000151991844, 0.01600000075995922, -0.9760000463575125, 0.0, 0.0, 0.0, 0.0, 0.0, 1.7011942222551668E9, 0.0, 2023-11-28 15:57:02.255
27.0, -1990.7599661136046, -3131.953038592823, -2293.8096693730913, -2898.7197877061553, -0.03200000151991844, 0.01600000075995922, -0.9760000463575125, 0.0, 0.0, 0.0, 0.0, 0.0, 1.7011942222558496E9, 0.0, 2023-11-28 15:57:02.255
27.0, -1996.388515546918, -3159.231868869625, -2254.712755236309, -2916.6900069932453, -0.03200000151991844, 0.01600000075995922, -0.9760000463575125, 0.0, 0.0, 0.0, 0.0, 0.0, 1.7011942222558496E9, 0.0, 2023-11-28 15:57:02.255
28.0, -1987.0425055576488, -3226.303234674968, -2311.8285073596053, -3000.755478197243, -0.03200000151991844, 0.01600000075995922, -0.9760000463575125, 0.0, 0.0, 0.0, 0.0, 0.0, 1.7011942222680316E9, 0.0, 2023-11-28 15:57:02.268
28.0, -1992.3045447953045, -3151.752068958245, -2310.0782341803424, -2922.9094606195576, -0.03200000151991844, 0.01600000075995922, -0.9760000463575125, 0.0, 0.0, 0.0, 0.0, 0.0, 1.7011942222680316E9, 0.0, 2023-11-28 15:57:02.268
29.0, -2010.6749333776534, -3140.270576094277, -2261.7512469529174, -2889.6991490130313, -0.03200000151991844, 0.01600000075995922, -0.9760000463575125, 0.0, 0.0, 0.0, 0.0, 0.0, 1.701194222283678E9, 0.0, 2023-11-28 15:57:02.283
29.0, -2003.490585562773, -3214.1597795188427, -2298.024536623154, -2992.942827189807, -0.03200000151991844, 0.01600000075995922, -0.9760000463575125, 0.0, 0.0, 0.0, 0.0, 0.0, 1.701194222283678E9, 0.0, 2023-11-28 15:57:02.283
30.0, -1995.9023285526782, -3190.938740693964, -2331.575179125648, -2959.089252790902, -0.03200000151991844, 0.01600000075995922, -0.9920000471174717, 0.0, 0.0, 0.0, 0.0, 0.0, 1.7011942222844396E9, 0.0, 2023-11-28 15:57:02.284
30.0, -2015.432086121291, -3142.361180169508, -2276.7258063755, -2879.7921540304087, -0.03200000151991844, 0.01600000075995922, -0.9920000471174717, 0.0, 0.0, 0.0, 0.0, 0.0, 1.7011942222844396E9, 0.0, 2023-11-28 15:57:02.284
31.0, -2011.6585270659998, -3194.570183550939, -2260.973347762134, -2952.0395413744263, -0.03200000151991844, 0.01600000075995922, -0.9920000471174717, 0.0, 0.0, 0.0, 0.0, 0.0, 1.7011942222980075E9, 0.0, 2023-11-28 15:57:02.298
31.0, -1999.8292235061526, -3212.577801837586, -2340.075971724931, -2988.7242200397886, -0.03200000151991844, 0.01600000075995922, -0.9920000471174717, 0.0, 0.0, 0.0, 0.0, 0.0, 1.7011942222980075E9, 0.0, 2023-11-28 15:57:02.298
32.0, -1997.906914928928, -3142.7763090645894, -2291.14686060464, -2883.6629504845478, -0.03200000151991844, 0.01600000075995922, -0.9920000471174717, 0.0, 0.0, 0.0, 0.0, 0.0, 1.7011942223136692E9, 0.0, 2023-11-28 15:57:02.313
32.0, -2010.0428902851418, -3164.778140503913, -2257.5027206032537, -2917.583843082655, -0.03200000151991844, 0.01600000075995922, -0.9920000471174717, 0.0, 0.0, 0.0, 0.0, 0.0, 1.7011942223136692E9, 0.0, 2023-11-28 15:57:02.313
33.0, -2010.5178575795144, -3230.9481904199347, -2321.253055247944, -2996.955739842262, -0.03200000151991844, 0.01600000075995922, -0.9920000471174717, 0.0, 0.0, 0.0, 0.0, 0.0, 1.7011942223144376E9, 0.0, 2023-11-28 15:57:02.314
33.0, -1988.089677545242, -3160.0957857593894, -2313.088853644673, -2917.707259781193, -0.03200000151991844, 0.01600000075995922, -0.9920000471174717, 0.0, 0.0, 0.0, 0.0, 0.0, 1.7011942223144376E9, 0.0, 2023-11-28 15:57:02.314
34.0, -2006.2842908296734, -3138.236070518382, -2268.535425472539, -2887.4065903401934, -0.03200000151991844, 0.01600000075995922, -0.9920000471174717, 0.0, 0.0, 0.0, 0.0, 0.0, 1.7011942223280158E9, 0.0, 2023-11-28 15:57:02.328
34.0, -2003.468146163039, -3209.900033469312, -2284.8600887791254, -2981.3079984276555, -0.03200000151991844, 0.01600000075995922, -0.9920000471174717, 0.0, 0.0, 0.0, 0.0, 0.0, 1.7011942223280158E9, 0.0, 2023-11-28 15:57:02.328
35.0, -1987.7830057488754, -3188.590083521791, -2324.099119114224, -2950.81285418896, -0.03200000151991844, 0.01600000075995922, -0.9920000471174717, 0.0, 0.0, 0.0, 0.0, 0.0, 1.7011942223434236E9, 0.0, 2023-11-28 15:57:02.343
35.0, -1988.848877236247, -3127.3267823476344, -2267.3012584871612, -2857.7005649921484, -0.03200000151991844, 0.01600000075995922, -0.9920000471174717, 0.0, 0.0, 0.0, 0.0, 0.0, 1.7011942223434236E9, 0.0, 2023-11-28 15:57:02.343
36.0, -2005.2745178416371, -3187.225020037964, -2261.553032255266, -2939.4921770230867, -0.03200000151991844, 0.01600000075995922, -0.9920000471174717, 0.0, 0.0, 0.0, 0.0, 0.0, 1.701194222358692E9, 0.0, 2023-11-28 15:57:02.358
36.0, -1993.6995274787769, -3201.0252508744597, -2332.790646611247, -2975.1222039009444, -0.03200000151991844, 0.01600000075995922, -0.9920000471174717, 0.0, 0.0, 0.0, 0.0, 0.0, 1.701194222358692E9, 0.0, 2023-11-28 15:57:02.358
37.0, -1988.501066540368, -3132.431745787151, -2295.1485535572283, -2878.606605744455, -0.03200000151991844, 0.01600000075995922, -0.9920000471174717, 0.0, 0.0, 0.0, 0.0, 0.0, 1.7011942223594437E9, 0.0, 2023-11-28 15:57:02.359
37.0, -1995.483459757641, -3153.0984329422936, -2251.780673671048, -2904.5315922372974, -0.03200000151991844, 0.01600000075995922, -0.9920000471174717, 0.0, 0.0, 0.0, 0.0, 0.0, 1.7011942223594437E9, 0.0, 2023-11-28 15:57:02.359
38.0, -1987.1322631565854, -3218.1652123713866, -2318.7248828778975, -2989.9060284257866, -0.03200000151991844, 0.01600000075995922, -0.9920000471174717, 0.0, 0.0, 0.0, 0.0, 0.0, 1.7011942223736773E9, 0.0, 2023-11-28 15:57:02.373
38.0, -1980.587438234128, -3149.4931693850085, -2315.45995021658, -2912.6135160415433, -0.03200000151991844, 0.01600000075995922, -0.9920000471174717, 0.0, 0.0, 0.0, 0.0, 0.0, 1.7011942223736773E9, 0.0, 2023-11-28 15:57:02.373
39.0, -1990.7038676142693, -3126.70595895499, -2259.5821049786173, -2877.6342317559756, -0.03200000151991844, 0.01600000075995922, -0.9920000471174717, 0.0, 0.0, 0.0, 0.0, 0.0, 1.7011942223743877E9, 0.0, 2023-11-28 15:57:02.374
39.0, -2010.3682615812868, -3212.9181327335536, -2295.6870991508476, -2978.1515228650533, -0.03200000151991844, 0.01600000075995922, -0.9920000471174717, 0.0, 0.0, 0.0, 0.0, 0.0, 1.7011942223743877E9, 0.0, 2023-11-28 15:57:02.374
40.0, -1985.871916871518, -3178.383896542713, -2321.4849290451966, -2953.804774153512, -0.03200000151991844, 0.01600000075995922, -0.9920000471174717, 0.0, 0.0, 0.0, 0.0, 0.0, 1.7011942223879924E9, 0.0, 2023-11-28 15:57:02.387
40.0, -1983.2390273027122, -3120.3069901308045, -2265.9212354035117, -2871.889745424036, -0.03200000151991844, 0.01600000075995922, -0.9920000471174717, 0.0, 0.0, 0.0, 0.0, 0.0, 1.7011942223879924E9, 0.0, 2023-11-28 15:57:02.387
41.0, -1995.0384116629139, -3189.2819650135934, -2264.9376417151652, -2950.887652188074, -0.03200000151991844, 0.01600000075995922, -0.9920000471174717, 0.0, 0.0, 0.0, 0.0, 0.0, 1.701194222403746E9, 0.0, 2023-11-28 15:57:02.403
41.0, -1986.9826671583578, -3210.0982481669635, -2336.4557485678233, -2989.550737929996, -0.03200000151991844, 0.01600000075995922, -0.9920000471174717, 0.0, 0.0, 0.0, 0.0, 0.0, 1.701194222403746E9, 0.0, 2023-11-28 15:57:02.403
42.0, -1984.2936790902168, -3138.718517612666, -2292.69143928634, -2886.808206347283, -0.01600000075995922, 0.01600000075995922, -0.9920000471174717, 0.0, 0.0, 0.0, 0.0, 0.0, 1.7011942224044042E9, 0.0, 2023-11-28 15:57:02.404
42.0, -2008.737665200606, -3165.1109915999696, -2253.2130553540774, -2908.600603389088, -0.01600000075995922, 0.01600000075995922, -0.9920000471174717, 0.0, 0.0, 0.0, 0.0, 0.0, 1.7011942224044042E9, 0.0, 2023-11-28 15:57:02.404
43.0, -1988.1233366448432, -3221.306728334166, -2316.8661525999196, -2998.2385255270638, -0.01600000075995922, 0.01600000075995922, -0.9920000471174717, 0.0, 0.0, 0.0, 0.0, 0.0, 1.7011942224343998E9, 0.0, 2023-11-28 15:57:02.434
43.0, -1980.6622362332419, -3155.1478981180117, -2311.5854138624854, -2918.926467166748, -0.01600000075995922, 0.01600000075995922, -0.9920000471174717, 0.0, 0.0, 0.0, 0.0, 0.0, 1.7011942224343998E9, 0.0, 2023-11-28 15:57:02.434
44.0, -1988.2766725430265, -3129.8362552179024, -2250.927976481151, -2874.5862132920884, -0.01600000075995922, 0.01600000075995922, -0.9920000471174717, 0.0, 0.0, 0.0, 0.0, 0.0, 1.701194222435265E9, 0.0, 2023-11-28 15:57:02.435
44.0, -1997.2262531369925, -3210.5582558615133, -2285.0770029765554, -2983.1891681053676, -0.01600000075995922, 0.01600000075995922, -0.9920000471174717, 0.0, 0.0, 0.0, 0.0, 0.0, 1.701194222435265E9, 0.0, 2023-11-28 15:57:02.435
45.0, -1987.8652835479006, -3174.2438272917643, -2330.887037533801, -2961.0975790671073, -0.01600000075995922, 0.01600000075995922, -0.9920000471174717, 0.0, 0.0, 0.0, 0.0, 0.0, 1.7011942224358542E9, 0.0, 2023-11-28 15:57:02.435
45.0, -1990.236380119808, -3120.591222527437, -2271.366529738996, -2876.373885470908, -0.01600000075995922, 0.01600000075995922, -0.9920000471174717, 0.0, 0.0, 0.0, 0.0, 0.0, 1.7011942224358542E9, 0.0, 2023-11-28 15:57:02.435
46.0, -1992.5625978922471, -3174.5093601886183, -2257.461581703741, -2949.5076291044243, -0.01600000075995922, 0.01600000075995922, -0.9920000471174717, 0.0, 0.0, 0.0, 0.0, 0.0, 1.701194222464432E9, 0.0, 2023-11-28 15:57:02.464
46.0, -1975.5161338942125, -3196.2381789311767, -2327.1097385785542, -2990.321157320868, -0.01600000075995922, 0.01600000075995922, -0.9920000471174717, 0.0, 0.0, 0.0, 0.0, 0.0, 1.701194222464432E9, 0.0, 2023-11-28 15:57:02.464
47.0, -1980.467761435546, -3125.4680520696566, -2293.428199577611, -2896.348691134248, -0.01600000075995922, 0.01600000075995922, -0.9920000471174717, 0.0, 0.0, 0.0, 0.0, 0.0, 1.7011942224652257E9, 0.0, 2023-11-28 15:57:02.465
47.0, -1998.8680692175403, -3157.8518457859755, -2251.0027744802646, -2922.423273625318, -0.01600000075995922, 0.01600000075995922, -0.9920000471174717, 0.0, 0.0, 0.0, 0.0, 0.0, 1.7011942224652257E9, 0.0, 2023-11-28 15:57:02.465
48.0, -2000.0872766030952, -3221.849013827741, -2304.5020433464088, -3009.921972988639, -0.01600000075995922, 0.01600000075995922, -0.9920000471174717, 0.0, 0.0, 0.0, 0.0, 0.0, 1.7011942224659047E9, 0.0, 2023-11-28 15:57:02.465
48.0, -1984.7162877852097, -3146.7892217170447, -2303.342674360145, -2927.285143567715, -0.01600000075995922, 0.01600000075995922, -0.9920000471174717, 0.0, 0.0, 0.0, 0.0, 0.0, 1.7011942224659047E9, 0.0, 2023-11-28 15:57:02.465
49.0, -2000.2144332015887, -3134.724304459989, -2253.564605949912, -2887.773100535851, -0.01600000075995922, 0.01600000075995922, -0.9920000471174717, 0.0, 0.0, 0.0, 0.0, 0.0, 1.7011942224782703E9, 0.0, 2023-11-28 15:57:02.478
49.0, -2009.4445062922314, -3211.612907649018, -2282.066383512225, -2990.0032658246346, -0.01600000075995922, 0.01600000075995922, -0.9920000471174717, 0.0, 0.0, 0.0, 0.0, 0.0, 1.7011942224782703E9, 0.0, 2023-11-28 15:57:02.478
50.0, -1986.2533866669983, -3178.7878057379276, -2318.780981377233, -2963.3041200409643, -0.01600000075995922, 0.01600000075995922, -0.9760000463575125, 0.0, 0.0, 0.0, 0.0, 0.0, 1.7011942224937105E9, 0.0, 2023-11-28 15:57:02.493
50.0, -1990.0269457222894, -3126.593761956319, -2272.4211815265007, -2879.1077523385175, -0.01600000075995922, 0.01600000075995922, -0.9760000463575125, 0.0, 0.0, 0.0, 0.0, 0.0, 1.7011942224937105E9, 0.0, 2023-11-28 15:57:02.493
51.0, -2008.2290388066322, -3192.6553547736257, -2257.091331608128, -2948.2248434196226, -0.01600000075995922, 0.01600000075995922, -0.9760000463575125, 0.0, 0.0, 0.0, 0.0, 0.0, 1.7011942224943979E9, 0.0, 2023-11-28 15:57:02.494
51.0, -1987.31925815437, -3207.921626392752, -2325.748414994683, -2986.285805268679, -0.01600000075995922, 0.01600000075995922, -0.9760000463575125, 0.0, 0.0, 0.0, 0.0, 0.0, 1.7011942224943979E9, 0.0, 2023-11-28 15:57:02.494
52.0, -1983.5943177985027, -3137.8882598225027, -2280.1328552351333, -2882.058533403557, -0.03200000151991844, 0.01600000075995922, -0.9760000463575125, 0.0, 0.0, 0.0, 0.0, 0.0, 1.7011942225080297E9, 0.0, 2023-11-28 15:57:02.508
52.0, -2000.68192069605, -3164.961395601742, -2246.148384337779, -2907.590830401052, -0.03200000151991844, 0.01600000075995922, -0.9760000463575125, 0.0, 0.0, 0.0, 0.0, 0.0, 1.7011942225080297E9, 0.0, 2023-11-28 15:57:02.508
53.0, -1993.5200122809038, -3210.670452860184, -2297.699165327009, -2986.9739468605258, -0.03200000151991844, 0.01600000075995922, -0.9760000463575125, 0.0, 0.0, 0.0, 0.0, 0.0, 1.7011942225237155E9, 0.0, 2023-11-28 15:57:02.523
53.0, -1988.3215513424948, -3149.71756338235, -2296.850208037067, -2915.33242330933, -0.03200000151991844, 0.01600000075995922, -0.9760000463575125, 0.0, 0.0, 0.0, 0.0, 0.0, 1.7011942225237155E9, 0.0, 2023-11-28 15:57:02.523
54.0, -2000.3976882994175, -3135.1319535551593, -2257.270846806001, -2882.5447203977965, -0.03200000151991844, 0.01600000075995922, -0.9760000463575125, 0.0, 0.0, 0.0, 0.0, 0.0, 1.7011942225244048E9, 0.0, 2023-11-28 15:57:02.524
54.0, -1999.197180413641, -3211.3062358526513, -2292.3137093908153, -2976.6630426826887, -0.03200000151991844, 0.01600000075995922, -0.9760000463575125, 0.0, 0.0, 0.0, 0.0, 0.0, 1.7011942225244048E9, 0.0, 2023-11-28 15:57:02.524
55.0, -1985.7896390724927, -3184.3939157715067, -2335.2814199817367, -2955.240895736497, -0.03200000151991844, 0.01600000075995922, -0.9760000463575125, 0.0, 0.0, 0.0, 0.0, 0.0, 1.7011942225379949E9, 0.0, 2023-11-28 15:57:02.537
55.0, -1987.5810511512682, -3126.1337542617694, -2269.1225897655822, -2870.9173714355566, -0.03200000151991844, 0.01600000075995922, -0.9760000463575125, 0.0, 0.0, 0.0, 0.0, 0.0, 1.7011942225379949E9, 0.0, 2023-11-28 15:57:02.537
56.0, -2003.587822961621, -3186.5705375457183, -2258.7817663880996, -2944.5747010628693, -0.03200000151991844, 0.01600000075995922, -0.9760000463575125, 0.0, 0.0, 0.0, 0.0, 0.0, 1.7011942225536757E9, 0.0, 2023-11-28 15:57:02.553
56.0, -1985.617603674531, -3207.7795101944357, -2328.643097560387, -2990.998079212848, -0.03200000151991844, 0.01600000075995922, -0.9760000463575125, 0.0, 0.0, 0.0, 0.0, 0.0, 1.7011942225536757E9, 0.0, 2023-11-28 15:57:02.553
57.0, -1987.5660915514454, -3125.0230039749295, -2284.4860987835564, -2889.7552475123666, -0.03200000151991844, 0.01600000075995922, -0.9760000463575125, 0.0, 0.0, 0.0, 0.0, 0.0, 1.7011942225544257E9, 0.0, 2023-11-28 15:57:02.554
57.0, -2005.7195659363642, -3152.8553394451737, -2245.7070761430077, -2905.0102994316258, -0.03200000151991844, 0.01600000075995922, -0.9760000463575125, 0.0, 0.0, 0.0, 0.0, 0.0, 1.7011942225544257E9, 0.0, 2023-11-28 15:57:02.554
58.0, -2006.0785963321105, -3223.902218903415, -2312.7073838491924, -2993.2719383859076, -0.03200000151991844, 0.01600000075995922, -0.9760000463575125, 0.0, 0.0, 0.0, 0.0, 0.0, 1.7011942225680592E9, 0.0, 2023-11-28 15:57:02.568
58.0, -1973.3806510195136, -3144.21617054753, -2303.1332399626262, -2915.186567211058, -0.03200000151991844, 0.01600000075995922, -0.9760000463575125, 0.0, 0.0, 0.0, 0.0, 0.0, 1.7011942225680592E9, 0.0, 2023-11-28 15:57:02.568
59.0, -1988.9012358356267, -3122.6967862024903, -2246.933763328474, -2875.446390281897, -0.03200000151991844, 0.01600000075995922, -0.9760000463575125, 0.0, 0.0, 0.0, 0.0, 0.0, 1.701194222583728E9, 0.0, 2023-11-28 15:57:02.583
59.0, -1994.7279999665916, -3200.310929982923, -2282.2384189101867, -2979.251053452026, -0.03200000151991844, 0.01600000075995922, -0.9760000463575125, 0.0, 0.0, 0.0, 0.0, 0.0, 1.701194222583728E9, 0.0, 2023-11-28 15:57:02.583
60.0, -1982.2816129140556, -3170.9227961311117, -2322.6068990319036, -2959.680156983901, -0.03200000151991844, 0.01600000075995922, -0.9760000463575125, 0.0, 0.0, 0.0, 0.0, 0.0, 1.701194222584536E9, 0.0, 2023-11-28 15:57:02.584
60.0, -1981.275579825975, -3112.9880059175193, -2262.9330553389154, -2865.6927311974578, -0.03200000151991844, 0.01600000075995922, -0.9760000463575125, 0.0, 0.0, 0.0, 0.0, 0.0, 1.701194222584536E9, 0.0, 2023-11-28 15:57:02.584
61.0, -1995.1543485615402, -3180.6315764160827, -2262.0055601499043, -2948.464197016787, -0.03200000151991844, 0.01600000075995922, -0.9760000463575125, 0.0, 0.0, 0.0, 0.0, 0.0, 1.7011942225981057E9, 0.0, 2023-11-28 15:57:02.598
61.0, -1986.2384270671755, -3197.0946160210297, -2333.6657832008786, -2989.528298530262, -0.03200000151991844, 0.01600000075995922, -0.9760000463575125, 0.0, 0.0, 0.0, 0.0, 0.0, 1.7011942225981057E9, 0.0, 2023-11-28 15:57:02.598
