Sample Index, EXG Channel 0, EXG Channel 1, EXG Channel 2, EXG Channel 3, Accel Channel 0, Accel Channel 1, Accel Channel 2, Other, Other, Other, Other, Other, Timestamp, Other, Timestamp (Formatted)
0.0, -1237.259882641025, -2252.7754870592616, -1248.533811057452, -2023.4018129268661, 0.0, 0.0, 0.0, 0.0, 0.0, 0.0, 0.0, 0.0, 1.7011965630113752E9, 0.0, 2023-11-28 16:36:03.011
1.0, -1352.3179047778249, -2412.828245562967, -1434.2647226569243, -2257.388653654605, 0.0, 0.03200000151991844, 0.0, 0.0, 0.0, 0.0, 0.0, 0.0, 1.7011965630248404E9, 0.0, 2023-11-28 16:36:03.024
1.0, -1398.243876233697, -2497.19290876342, -1546.7272542244755, -2354.7644288009033, 0.0, 0.03200000151991844, 0.0, 0.0, 0.0, 0.0, 0.0, 0.0, 1.7011965630248404E9, 0.0, 2023-11-28 16:36:03.024
2.0, -1254.373664838262, -2276.722066475544, -1767.659974156879, -2540.485990650486, -0.01600000075995922, 0.03200000151991844, 0.0, 0.0, 0.0, 0.0, 0.0, 0.0, 1.701196563041521E9, 0.0, 2023-11-28 16:36:03.041
2.0, -1289.9700326165184, -2322.5208813329227, -1819.7754800394177, -2613.227044788655, -0.01600000075995922, 0.03200000151991844, 0.0, 0.0, 0.0, 0.0, 0.0, 0.0, 1.701196563041521E9, 0.0, 2023-11-28 16:36:03.041
3.0, -1411.6140185752884, -2511.6588417920284, -2042.7333557978272, -2368.4038439393044, -0.01600000075995922, 0.03200000151991844, 0.0, 0.0, 0.0, 0.0, 0.0, 0.0, 1.7011965630423229E9, 0.0, 2023-11-28 16:36:03.042
3.0, -1299.3646613052115, -2351.632262588013, -1846.859835518524, -2129.985221764073, -0.01600000075995922, 0.03200000151991844, 0.0, 0.0, 0.0, 0.0, 0.0, 0.0, 1.7011965630423229E9, 0.0, 2023-11-28 16:36:03.042
4.0, -1253.094619053416, -2271.647022235673, -1730.4965882971883, -2022.9605047320947, -0.01600000075995922, 0.03200000151991844, 0.0, 0.0, 0.0, 0.0, 0.0, 0.0, 1.7011965630709589E9, 0.0, 2023-11-28 16:36:03.070
4.0, -1400.1661848109215, -2484.6305848122574, -1500.6329872705974, -1830.843713958282, -0.01600000075995922, 0.03200000151991844, 0.0, 0.0, 0.0, 0.0, 0.0, 0.0, 1.7011965630709589E9, 0.0, 2023-11-28 16:36:03.070
5.0, -1362.3557962588966, -2434.3251905082725, -1456.038420198951, -1753.8466536705382, -0.01600000075995922, 0.03200000151991844, 0.0, 0.0, 0.0, 0.0, 0.0, 0.0, 1.7011965630716543E9, 0.0, 2023-11-28 16:36:03.071
5.0, -1246.172064235434, -2252.1733631663956, -1234.0416987291537, -1998.02659172751, -0.01600000075995922, 0.03200000151991844, 0.0, 0.0, 0.0, 0.0, 0.0, 0.0, 1.7011965630716543E9, 0.0, 2023-11-28 16:36:03.071
6.0, -1363.2047535488382, -2424.0142863304354, -1428.8306480213068, -2240.0654370598495, -0.01600000075995922, 0.03200000151991844, 0.0, 0.0, 0.0, 0.0, 0.0, 0.0, 1.701196563072428E9, 0.0, 2023-11-28 16:36:03.072
6.0, -1400.6748112048954, -2500.9253289191984, -1524.4598898882978, -2339.112947486341, -0.01600000075995922, 0.03200000151991844, 0.0, 0.0, 0.0, 0.0, 0.0, 0.0, 1.701196563072428E9, 0.0, 2023-11-28 16:36:03.072
7.0, -1264.0637456234545, -2284.635694781784, -1768.2209591502324, -2535.9607117041014, -0.01600000075995922, 0.03200000151991844, 0.0, 0.0, 0.0, 0.0, 0.0, 0.0, 1.7011965630845833E9, 0.0, 2023-11-28 16:36:03.084
7.0, -1307.5700018079951, -2344.055225277785, -1829.1775885280222, -2621.0621351958252, -0.01600000075995922, 0.03200000151991844, 0.0, 0.0, 0.0, 0.0, 0.0, 0.0, 1.7011965630845833E9, 0.0, 2023-11-28 16:36:03.084
8.0, -1421.6257307566702, -2526.524944115896, -2048.0103546353057, -2388.008399507031, -0.01600000075995922, 0.03200000151991844, 0.0, 0.0, 0.0, 0.0, 0.0, 0.0, 1.7011965631003084E9, 0.0, 2023-11-28 16:36:03.100
8.0, -1306.4181126216426, -2360.6865603807382, -1851.2242987668142, -2154.552624573, -0.01600000075995922, 0.03200000151991844, 0.0, 0.0, 0.0, 0.0, 0.0, 0.0, 1.7011965631003084E9, 0.0, 2023-11-28 16:36:03.100
9.0, -1262.5490861414, -2280.41334773181, -1762.0688237231225, -2061.346837877296, -0.01600000075995922, 0.03200000151991844, 0.0, 0.0, 0.0, 0.0, 0.0, 0.0, 1.7011965631009848E9, 0.0, 2023-11-28 16:36:03.100
9.0, -1402.4138646842912, -2501.845344308298, -2001.1793273901567, -1866.8178116320632, -0.01600000075995922, 0.03200000151991844, 0.0, 0.0, 0.0, 0.0, 0.0, 0.0, 1.7011965631009848E9, 0.0, 2023-11-28 16:36:03.100
10.0, -1353.5670313630253, -2435.7126933918335, -1932.0584964090958, -1773.3838910390623, -0.01600000075995922, 0.03200000151991844, -0.49600002355873585, 0.0, 0.0, 0.0, 0.0, 0.0, 1.7011965631145656E9, 0.0, 2023-11-28 16:36:03.114
10.0, -1239.6085398131981, -2254.7164951362647, -1727.919797227718, -2007.073409720324, -0.01600000075995922, 0.03200000151991844, -0.49600002355873585, 0.0, 0.0, 0.0, 0.0, 0.0, 1.7011965631145656E9, 0.0, 2023-11-28 16:36:03.114
11.0, -1349.3222449133173, -2420.644636470359, -1906.22326751519, -2240.0766567597166, -0.01600000075995922, 0.01600000075995922, -0.49600002355873585, 0.0, 0.0, 0.0, 0.0, 0.0, 1.7011965631300256E9, 0.0, 2023-11-28 16:36:03.130
11.0, -1399.0479547241703, -2502.039819105994, -2004.1862069545314, -2335.881673924625, -0.01600000075995922, 0.01600000075995922, -0.49600002355873585, 0.0, 0.0, 0.0, 0.0, 0.0, 1.7011965631300256E9, 0.0, 2023-11-28 16:36:03.130
12.0, -1247.4885090198368, -2279.2390191457234, -2246.9188037286513, -2526.2481915191747, -0.01600000075995922, 0.01600000075995922, -0.49600002355873585, 0.0, 0.0, 0.0, 0.0, 0.0, 1.7011965631453295E9, 0.0, 2023-11-28 16:36:03.145
12.0, -1292.0755962915719, -2329.4434361509047, -2296.3266220432706, -2610.826029017102, -0.01600000075995922, 0.01600000075995922, -0.49600002355873585, 0.0, 0.0, 0.0, 0.0, 0.0, 1.7011965631453295E9, 0.0, 2023-11-28 16:36:03.145
13.0, -1411.2699477793649, -2513.7419660673477, -2517.896994918119, -2850.856548073236, -0.01600000075995922, 0.01600000075995922, -0.49600002355873585, 0.0, 0.0, 0.0, 0.0, 0.0, 1.7011965631459544E9, 0.0, 2023-11-28 16:36:03.145
13.0, -1303.4935108562931, -2346.2804657514207, -2308.069907904137, -2615.6430201600306, -0.01600000075995922, 0.01600000075995922, -0.49600002355873585, 0.0, 0.0, 0.0, 0.0, 0.0, 1.7011965631459544E9, 0.0, 2023-11-28 16:36:03.145
14.0, -1253.0123412543908, -2271.0374185428955, -2222.052208923269, -2518.839449706953, -0.01600000075995922, 0.01600000075995922, -0.49600002355873585, 0.0, 0.0, 0.0, 0.0, 0.0, 1.7011965631603076E9, 0.0, 2023-11-28 16:36:03.160
14.0, -1397.1480855466798, -2490.4199499436654, -1986.2720861667767, -2327.066729729064, -0.01600000075995922, 0.01600000075995922, -0.49600002355873585, 0.0, 0.0, 0.0, 0.0, 0.0, 1.7011965631603076E9, 0.0, 2023-11-28 16:36:03.160
15.0, -1348.5555654224008, -2430.940581048373, -1920.7527788430452, -2243.6333016175777, -0.01600000075995922, 0.01600000075995922, -0.49600002355873585, 0.0, 0.0, 0.0, 0.0, 0.0, 1.7011965631609693E9, 0.0, 2023-11-28 16:36:03.160
15.0, -1238.0976202310994, -2254.230308142025, -1711.1126868268475, -2003.382128464058, -0.01600000075995922, 0.01600000075995922, -0.49600002355873585, 0.0, 0.0, 0.0, 0.0, 0.0, 1.7011965631609693E9, 0.0, 2023-11-28 16:36:03.160
16.0, -1351.3604903891683, -2421.643189758528, -1908.960874282755, -1758.5738872145303, -0.01600000075995922, 0.01600000075995922, -0.49600002355873585, 0.0, 0.0, 0.0, 0.0, 0.0, 1.7011965631745737E9, 0.0, 2023-11-28 16:36:03.174
16.0, -1394.915365273133, -2499.1862754398026, -2004.949146545492, -1849.7040294348262, -0.01600000075995922, 0.01600000075995922, -0.49600002355873585, 0.0, 0.0, 0.0, 0.0, 0.0, 1.7011965631745737E9, 0.0, 2023-11-28 16:36:03.174
17.0, -1261.1204443583265, -2287.399480849039, -2243.751108466182, -2056.2867532372475, -0.01600000075995922, 0.01600000075995922, -0.49600002355873585, 0.0, 0.0, 0.0, 0.0, 0.0, 1.7011965631904266E9, 0.0, 2023-11-28 16:36:03.190
17.0, -1298.6615601135418, -2336.639003665652, -2299.700011803303, -2135.651170196943, -0.01600000075995922, 0.01600000075995922, -0.49600002355873585, 0.0, 0.0, 0.0, 0.0, 0.0, 1.7011965631904266E9, 0.0, 2023-11-28 16:36:03.190
18.0, -1416.0420601228252, -2517.429507423658, -2529.041896786075, -2371.3695846041664, -0.01600000075995922, 0.01600000075995922, -0.49600002355873585, 0.0, 0.0, 0.0, 0.0, 0.0, 1.7011965631909559E9, 0.0, 2023-11-28 16:36:03.190
18.0, -1297.5283704269677, -2349.4668605136685, -2340.4200425208546, -2132.6068916330114, -0.01600000075995922, 0.01600000075995922, -0.49600002355873585, 0.0, 0.0, 0.0, 0.0, 0.0, 1.7011965631909559E9, 0.0, 2023-11-28 16:36:03.190
19.0, -1254.807493233122, -2276.591169977095, -2249.5329937976785, -2037.864006055519, -0.01600000075995922, 0.01600000075995922, -0.49600002355873585, 0.0, 0.0, 0.0, 0.0, 0.0, 1.7011965632048757E9, 0.0, 2023-11-28 16:36:03.204
19.0, -1393.2174506932497, -2492.8172258152626, -2482.932670232374, -1833.9141718219034, -0.01600000075995922, 0.01600000075995922, -0.49600002355873585, 0.0, 0.0, 0.0, 0.0, 0.0, 1.7011965632048757E9, 0.0, 2023-11-28 16:36:03.204
20.0, -1353.6717485617846, -2433.1882609217428, -2432.7581724268384, -1747.43272524653, -0.01600000075995922, 0.01600000075995922, -0.7360000349581242, 0.0, 0.0, 0.0, 0.0, 0.0, 1.7011965632202792E9, 0.0, 2023-11-28 16:36:03.220
20.0, -1227.4202058576047, -2231.8170877075754, -2215.3428284027614, -1509.9041992607526, -0.01600000075995922, 0.01600000075995922, -0.7360000349581242, 0.0, 0.0, 0.0, 0.0, 0.0, 1.7011965632202792E9, 0.0, 2023-11-28 16:36:03.220
21.0, -1348.2563734259456, -2416.422289420385, -2407.8990574213676, -1754.392679064069, -0.01600000075995922, 0.03200000151991844, -0.7360000349581242, 0.0, 0.0, 0.0, 0.0, 0.0, 1.7011965632209473E9, 0.0, 2023-11-28 16:36:03.220
21.0, -1392.031902407296, -2481.055240454618, -2490.6593035408296, -1837.0369882849045, -0.01600000075995922, 0.03200000151991844, -0.7360000349581242, 0.0, 0.0, 0.0, 0.0, 0.0, 1.7011965632209473E9, 0.0, 2023-11-28 16:36:03.220
22.0, -1258.8428452853113, -2269.5264989607967, -2259.4923473796807, -2036.6784577695653, -0.01600000075995922, 0.03200000151991844, -0.7360000349581242, 0.0, 0.0, 0.0, 0.0, 0.0, 1.7011965632345564E9, 0.0, 2023-11-28 16:36:03.234
22.0, -1293.8931876700372, -2331.7285150238313, -2312.5764873507433, -2134.0317935161293, -0.01600000075995922, 0.03200000151991844, -0.7360000349581242, 0.0, 0.0, 0.0, 0.0, 0.0, 1.7011965632345564E9, 0.0, 2023-11-28 16:36:03.234
23.0, -1416.756381014362, -2516.0943631394766, -2531.973978351336, -2376.1716161472723, -0.01600000075995922, 0.03200000151991844, -0.7360000349581242, 0.0, 0.0, 0.0, 0.0, 0.0, 1.7011965632503245E9, 0.0, 2023-11-28 16:36:03.250
23.0, -1296.2081857426092, -2344.6648289705627, -2327.1433976781555, -2132.0646061394364, -0.01600000075995922, 0.03200000151991844, -0.7360000349581242, 0.0, 0.0, 0.0, 0.0, 0.0, 1.7011965632503245E9, 0.0, 2023-11-28 16:36:03.250
24.0, -1261.5991515526548, -2281.221166122239, -2243.7286690664478, -2045.3438059668988, -0.01600000075995922, 0.03200000151991844, -0.7360000349581242, 0.0, 0.0, 0.0, 0.0, 0.0, 1.701196563251083E9, 0.0, 2023-11-28 16:36:03.251
24.0, -1404.515688459389, -2488.254547869321, -2007.9709857096896, -1853.9488158845343, -0.01600000075995922, 0.03200000151991844, -0.7360000349581242, 0.0, 0.0, 0.0, 0.0, 0.0, 1.701196563251083E9, 0.0, 2023-11-28 16:36:03.251
25.0, -1340.7690937146544, -2424.5416122241877, -1928.427053552121, -1749.6953647197224, -0.01600000075995922, 0.03200000151991844, -0.7360000349581242, 0.0, 0.0, 0.0, 0.0, 0.0, 1.7011965632809713E9, 0.0, 2023-11-28 16:36:03.280
25.0, -1233.5723412847146, -2251.1748098782264, -1712.6423059087247, -1518.5284085585736, -0.01600000075995922, 0.03200000151991844, -0.7360000349581242, 0.0, 0.0, 0.0, 0.0, 0.0, 1.7011965632809713E9, 0.0, 2023-11-28 16:36:03.280
26.0, -1365.089663126506, -2428.1169565818273, -1916.1190427979454, -1761.1282388842665, -0.01600000075995922, 0.03200000151991844, -0.7360000349581242, 0.0, 0.0, 0.0, 0.0, 0.0, 1.701196563281652E9, 0.0, 2023-11-28 16:36:03.281
26.0, -1398.737543027848, -2482.2183493408374, -2002.5219514742494, -1841.0686004371382, -0.01600000075995922, 0.03200000151991844, -0.7360000349581242, 0.0, 0.0, 0.0, 0.0, 0.0, 1.701196563281652E9, 0.0, 2023-11-28 16:36:03.281
27.0, -1244.5489476546645, -2272.6867144233547, -2244.1325782616623, -2032.5533481184393, -0.01600000075995922, 0.03200000151991844, -0.7360000349581242, 0.0, 0.0, 0.0, 0.0, 0.0, 1.7011965632823873E9, 0.0, 2023-11-28 16:36:03.282
27.0, -1300.348254993558, -2343.0978108891286, -2305.523036034312, -2131.769154042937, -0.01600000075995922, 0.03200000151991844, -0.7360000349581242, 0.0, 0.0, 0.0, 0.0, 0.0, 1.7011965632823873E9, 0.0, 2023-11-28 16:36:03.282
28.0, -1412.3956576660275, -2518.6786340088584, -2511.1015966986306, -2374.641997065395, -0.01600000075995922, 0.03200000151991844, -0.7360000349581242, 0.0, 0.0, 0.0, 0.0, 0.0, 1.701196563294588E9, 0.0, 2023-11-28 16:36:03.294
28.0, -1290.9723258046433, -2346.071031353902, -2323.313740123529, -2130.538726957515, -0.01600000075995922, 0.03200000151991844, -0.7360000349581242, 0.0, 0.0, 0.0, 0.0, 0.0, 1.701196563294588E9, 0.0, 2023-11-28 16:36:03.294
29.0, -1258.37535779085, -2277.978672860656, -2243.5117548690178, -2046.5630133524537, -0.01600000075995922, 0.03200000151991844, -0.7360000349581242, 0.0, 0.0, 0.0, 0.0, 0.0, 1.7011965633103213E9, 0.0, 2023-11-28 16:36:03.310
29.0, -1397.761429139413, -2495.6146709821187, -2479.3722854745574, -1849.0869459421374, -0.01600000075995922, 0.03200000151991844, -0.7360000349581242, 0.0, 0.0, 0.0, 0.0, 0.0, 1.7011965633103213E9, 0.0, 2023-11-28 16:36:03.310
30.0, -1349.531679310836, -2429.7924317619763, -2412.536533366423, -1752.3731330879964, -0.01600000075995922, 0.03200000151991844, -0.8640000410377979, 0.0, 0.0, 0.0, 0.0, 0.0, 1.7011965633110309E9, 0.0, 2023-11-28 16:36:03.311
30.0, -1251.5463004717603, -2261.0743250609376, -2215.1820127046667, -1516.8192742788233, -0.01600000075995922, 0.03200000151991844, -0.8640000410377979, 0.0, 0.0, 0.0, 0.0, 0.0, 1.7011965633110309E9, 0.0, 2023-11-28 16:36:03.311
31.0, -1369.5214445739985, -2427.118403293658, -2411.392123979982, -1761.0235216855071, -0.01600000075995922, 0.03200000151991844, -0.8640000410377979, 0.0, 0.0, 0.0, 0.0, 0.0, 1.7011965633246052E9, 0.0, 2023-11-28 16:36:03.324
31.0, -1396.6768581522629, -2500.4316621250473, -2505.08035776997, -1846.6260917712934, -0.01600000075995922, 0.03200000151991844, -0.8640000410377979, 0.0, 0.0, 0.0, 0.0, 0.0, 1.7011965633246052E9, 0.0, 2023-11-28 16:36:03.324
32.0, -1256.5839457120746, -2277.6832207641564, -2735.48250439018, -2040.2463223272935, -0.01600000075995922, 0.03200000151991844, -0.8640000410377979, 0.0, 0.0, 0.0, 0.0, 0.0, 1.7011965633403113E9, 0.0, 2023-11-28 16:36:03.340
32.0, -1311.4370583621785, -2349.313524615485, -2813.249984068796, -2144.286599194631, -0.01600000075995922, 0.03200000151991844, -0.8640000410377979, 0.0, 0.0, 0.0, 0.0, 0.0, 1.7011965633403113E9, 0.0, 2023-11-28 16:36:03.340
33.0, -1414.2282086443156, -2518.282204613555, -3013.4767478965223, -2373.2021355824545, -0.01600000075995922, 0.03200000151991844, -0.8640000410377979, 0.0, 0.0, 0.0, 0.0, 0.0, 1.7011965633409665E9, 0.0, 2023-11-28 16:36:03.340
33.0, -1297.2628375301138, -2348.6740017230622, -2810.9761248957366, -2617.1875988417305, -0.01600000075995922, 0.03200000151991844, -0.8640000410377979, 0.0, 0.0, 0.0, 0.0, 0.0, 1.7011965633409665E9, 0.0, 2023-11-28 16:36:03.340
34.0, -1258.4052769904956, -2284.115848687943, -2724.808829916641, -2539.6893919599243, -0.01600000075995922, 0.03200000151991844, -0.8640000410377979, 0.0, 0.0, 0.0, 0.0, 0.0, 1.7011965633546104E9, 0.0, 2023-11-28 16:36:03.354
34.0, -1407.8254999201745, -2497.3911234610714, -2488.2208887697197, -2342.9089459413663, -0.01600000075995922, 0.03200000151991844, -0.8640000410377979, 0.0, 0.0, 0.0, 0.0, 0.0, 1.7011965633546104E9, 0.0, 2023-11-28 16:36:03.354
35.0, -1352.2842456782237, -2431.9466141364537, -2405.303566852119, -2235.6860142117366, -0.01600000075995922, 0.03200000151991844, -0.8640000410377979, 0.0, 0.0, 0.0, 0.0, 0.0, 1.7011965633703873E9, 0.0, 2023-11-28 16:36:03.370
35.0, -1242.6752577768639, -2258.968761385884, -2200.6637210766785, -1998.725953019224, -0.01600000075995922, 0.03200000151991844, -0.8640000410377979, 0.0, 0.0, 0.0, 0.0, 0.0, 1.7011965633703873E9, 0.0, 2023-11-28 16:36:03.370
36.0, -1354.7750190487131, -2434.3102309084497, -2408.942489509005, -2241.146268147044, -0.01600000075995922, 0.03200000151991844, -0.8640000410377979, 0.0, 0.0, 0.0, 0.0, 0.0, 1.7011965633710177E9, 0.0, 2023-11-28 16:36:03.371
36.0, -1379.3461617575958, -2484.0509003191255, -2488.434063067194, -2316.7932245507836, -0.01600000075995922, 0.03200000151991844, -0.8640000410377979, 0.0, 0.0, 0.0, 0.0, 0.0, 1.7011965633710177E9, 0.0, 2023-11-28 16:36:03.371
37.0, -1246.6806906294078, -2271.2655524401926, -2727.681073082611, -2525.2645978308283, -0.01600000075995922, 0.03200000151991844, -0.8640000410377979, 0.0, 0.0, 0.0, 0.0, 0.0, 1.7011965633845756E9, 0.0, 2023-11-28 16:36:03.384
37.0, -1296.6756732370704, -2341.1829821118154, -2796.5775100663304, -2625.7257904405706, -0.01600000075995922, 0.03200000151991844, -0.8640000410377979, 0.0, 0.0, 0.0, 0.0, 0.0, 1.7011965633845756E9, 0.0, 2023-11-28 16:36:03.384
38.0, -1414.886431036517, -2517.8334166188724, -3018.1665824409574, -2861.5938008460216, -0.01600000075995922, 0.03200000151991844, -0.8640000410377979, 0.0, 0.0, 0.0, 0.0, 0.0, 1.7011965634003096E9, 0.0, 2023-11-28 16:36:03.400
38.0, -1284.2143265847117, -2332.300719717052, -2800.2313923230395, -3100.2835657680407, -0.01600000075995922, 0.03200000151991844, -0.8640000410377979, 0.0, 0.0, 0.0, 0.0, 0.0, 1.7011965634003096E9, 0.0, 2023-11-28 16:36:03.400
39.0, -1263.502760630101, -2281.0005120248534, -2741.5561019182205, -3030.3436966966838, -0.01600000075995922, 0.03200000151991844, -0.8640000410377979, 0.0, 0.0, 0.0, 0.0, 0.0, 1.7011965634010603E9, 0.0, 2023-11-28 16:36:03.401
39.0, -1403.3189204735681, -2488.6210580649786, -2498.965621342417, -2833.054624284152, -0.01600000075995922, 0.03200000151991844, -0.8640000410377979, 0.0, 0.0, 0.0, 0.0, 0.0, 1.7011965634010603E9, 0.0, 2023-11-28 16:36:03.401
40.0, -1345.8815369540825, -2420.955048166681, -2417.469461407978, -2724.414270471316, -0.01600000075995922, 0.03200000151991844, -0.9280000440776348, 0.0, 0.0, 0.0, 0.0, 0.0, 1.7011965634146645E9, 0.0, 2023-11-28 16:36:03.414
40.0, -1237.8807060336694, -2252.543613262009, -2213.222305127885, -2495.236941086594, -0.01600000075995922, 0.03200000151991844, -0.9280000440776348, 0.0, 0.0, 0.0, 0.0, 0.0, 1.7011965634146645E9, 0.0, 2023-11-28 16:36:03.414
41.0, -1357.647262214683, -2424.9193421197124, -2408.3104464164935, -2259.1800657333806, -0.01600000075995922, 0.03200000151991844, -0.9280000440776348, 0.0, 0.0, 0.0, 0.0, 0.0, 1.701196563430303E9, 0.0, 2023-11-28 16:36:03.430
41.0, -1385.988224078901, -2486.021827595774, -2487.5028279782273, -2329.8230359964073, -0.01600000075995922, 0.03200000151991844, -0.9280000440776348, 0.0, 0.0, 0.0, 0.0, 0.0, 1.701196563430303E9, 0.0, 2023-11-28 16:36:03.430
42.0, -1235.7003443595022, -2266.4784804969095, -2720.6425813660026, -2523.8509156475775, -0.01600000075995922, 0.03200000151991844, -0.9280000440776348, 0.0, 0.0, 0.0, 0.0, 0.0, 1.7011965634310443E9, 0.0, 2023-11-28 16:36:03.431
42.0, -1298.4222065163776, -2343.8196115805767, -2802.176140299998, -2629.5965868947096, -0.01600000075995922, 0.03200000151991844, -0.9280000440776348, 0.0, 0.0, 0.0, 0.0, 0.0, 1.7011965634310443E9, 0.0, 2023-11-28 16:36:03.431
43.0, -1404.4221909604967, -2511.9243746888824, -3005.869791386649, -2860.4830505591817, -0.01600000075995922, 0.03200000151991844, -0.9280000440776348, 0.0, 0.0, 0.0, 0.0, 0.0, 1.701196563444599E9, 0.0, 2023-11-28 16:36:03.444
43.0, -1284.4686397816986, -2330.3896308396943, -2807.2025658404455, -3097.78531259764, -0.01600000075995922, 0.03200000151991844, -0.9280000440776348, 0.0, 0.0, 0.0, 0.0, 0.0, 1.701196563444599E9, 0.0, 2023-11-28 16:36:03.444
44.0, -1250.5440072836354, -2269.5676378603093, -2717.803997299634, -3029.5022192066535, -0.01600000075995922, 0.03200000151991844, -0.9280000440776348, 0.0, 0.0, 0.0, 0.0, 0.0, 1.7011965634603405E9, 0.0, 2023-11-28 16:36:03.460
44.0, -1398.5542879300192, -2492.716248516459, -2482.439003438223, -2832.957386885304, -0.01600000075995922, 0.03200000151991844, -0.9280000440776348, 0.0, 0.0, 0.0, 0.0, 0.0, 1.7011965634603405E9, 0.0, 2023-11-28 16:36:03.460
45.0, -1334.299066791311, -2407.3006734284572, -2403.598172472324, -2719.335486331489, -0.01600000075995922, 0.03200000151991844, -0.9280000440776348, 0.0, 0.0, 0.0, 0.0, 0.0, 1.7011965634609723E9, 0.0, 2023-11-28 16:36:03.460
45.0, -1239.0737341195345, -2251.047653279733, -2202.9188807499595, -2502.7429202976637, -0.01600000075995922, 0.03200000151991844, -0.9280000440776348, 0.0, 0.0, 0.0, 0.0, 0.0, 1.7011965634609723E9, 0.0, 2023-11-28 16:36:03.460
46.0, -1365.171940925531, -2433.1059831227176, -2421.957341354806, -2266.1886382503435, -0.01600000075995922, 0.03200000151991844, -0.9280000440776348, 0.0, 0.0, 0.0, 0.0, 0.0, 1.7011965634746249E9, 0.0, 2023-11-28 16:36:03.474
46.0, -1391.3250613156706, -2486.8707848857157, -2485.13173140632, -2334.0266835466027, -0.01600000075995922, 0.03200000151991844, -0.9280000440776348, 0.0, 0.0, 0.0, 0.0, 0.0, 1.7011965634746249E9, 0.0, 2023-11-28 16:36:03.474
47.0, -1253.5247075483203, -2277.111016070936, -2241.024721398484, -2526.233231919352, -0.01600000075995922, 0.03200000151991844, -0.9280000440776348, 0.0, 0.0, 0.0, 0.0, 0.0, 1.701196563490424E9, 0.0, 2023-11-28 16:36:03.490
47.0, -1312.1251999540254, -2353.5919701647945, -2322.7751945299096, -2639.9822890716605, -0.01600000075995922, 0.03200000151991844, -0.9280000440776348, 0.0, 0.0, 0.0, 0.0, 0.0, 1.701196563490424E9, 0.0, 2023-11-28 16:36:03.490
48.0, -1414.2431682441384, -2515.2154866498895, -2517.6651211208664, -2861.4629043475725, -0.01600000075995922, 0.03200000151991844, -0.9280000440776348, 0.0, 0.0, 0.0, 0.0, 0.0, 1.701196563490975E9, 0.0, 2023-11-28 16:36:03.490
48.0, -1288.3917948352173, -2332.2782803173177, -2312.352093353402, -3097.250506903976, -0.01600000075995922, 0.03200000151991844, -0.9280000440776348, 0.0, 0.0, 0.0, 0.0, 0.0, 1.701196563490975E9, 0.0, 2023-11-28 16:36:03.490
49.0, -1262.6837225398049, -2281.669954116922, -2242.6104389796965, -3036.15176132787, -0.01600000075995922, 0.03200000151991844, -0.9280000440776348, 0.0, 0.0, 0.0, 0.0, 0.0, 1.7011965635046349E9, 0.0, 2023-11-28 16:36:03.504
49.0, -1394.8143879743293, -2491.463382031303, -2008.5731096025556, -2837.2582718343474, -0.01600000075995922, 0.03200000151991844, -0.9280000440776348, 0.0, 0.0, 0.0, 0.0, 0.0, 1.7011965635046349E9, 0.0, 2023-11-28 16:36:03.504
50.0, -1340.7803134145215, -2416.2465141224675, -1922.0916630271822, -2724.9266367652453, -0.01600000075995922, 0.03200000151991844, -0.9600000455975533, 0.0, 0.0, 0.0, 0.0, 0.0, 1.7011965635204408E9, 0.0, 2023-11-28 16:36:03.520
50.0, -1235.0982204666361, -2241.9821357871406, -1713.3678465001285, -2488.759434363339, -0.01600000075995922, 0.03200000151991844, -0.9600000455975533, 0.0, 0.0, 0.0, 0.0, 0.0, 1.7011965635204408E9, 0.0, 2023-11-28 16:36:03.520
51.0, -1353.3762964652851, -2419.6722624818794, -1926.2728711776435, -2257.2652369560674, -0.01600000075995922, 0.03200000151991844, -0.9600000455975533, 0.0, 0.0, 0.0, 0.0, 0.0, 1.7011965635209625E9, 0.0, 2023-11-28 16:36:03.520
51.0, -1381.1974122356623, -2471.5072758677416, -1993.5985501799732, -2316.6772876521572, -0.01600000075995922, 0.03200000151991844, -0.9600000455975533, 0.0, 0.0, 0.0, 0.0, 0.0, 1.7011965635209625E9, 0.0, 2023-11-28 16:36:03.520
52.0, -1239.6197595130652, -2263.0527321374975, -2227.418965359684, -2512.6947940797545, -0.01600000075995922, 0.03200000151991844, -0.9600000455975533, 0.0, 0.0, 0.0, 0.0, 0.0, 1.7011965635350995E9, 0.0, 2023-11-28 16:36:03.535
52.0, -1301.1224142843857, -2337.6936554531567, -2307.2770491135307, -2633.6169793470763, -0.01600000075995922, 0.03200000151991844, -0.9600000455975533, 0.0, 0.0, 0.0, 0.0, 0.0, 1.7011965635350995E9, 0.0, 2023-11-28 16:36:03.535
53.0, -1402.9898092774674, -2505.633862963412, -2497.091931464616, -2850.2357246805914, -0.01600000075995922, 0.03200000151991844, -0.9600000455975533, 0.0, 0.0, 0.0, 0.0, 0.0, 1.7011965635503504E9, 0.0, 2023-11-28 16:36:03.550
53.0, -1279.337497042492, -2322.9098309283145, -2306.113940227311, -3088.413123308681, -0.01600000075995922, 0.03200000151991844, -0.9600000455975533, 0.0, 0.0, 0.0, 0.0, 0.0, 1.7011965635503504E9, 0.0, 2023-11-28 16:36:03.550
54.0, -1250.9179972792044, -2271.863936433103, -2235.463490164373, -3027.8117844266817, -0.01600000075995922, 0.03200000151991844, -0.9600000455975533, 0.0, 0.0, 0.0, 0.0, 0.0, 1.7011965635509639E9, 0.0, 2023-11-28 16:36:03.550
54.0, -1397.0209289481863, -2483.523574425373, -1997.0242985393852, -2825.443927874323, -0.01600000075995922, 0.03200000151991844, -0.9600000455975533, 0.0, 0.0, 0.0, 0.0, 0.0, 1.7011965635509639E9, 0.0, 2023-11-28 16:36:03.550
55.0, -1328.4797824602574, -2401.5113082970493, -1912.3941024420783, -2709.0993801527657, -0.01600000075995922, 0.03200000151991844, -0.9600000455975533, 0.0, 0.0, 0.0, 0.0, 0.0, 1.7011965635646062E9, 0.0, 2023-11-28 16:36:03.564
55.0, -1228.7029915424064, -2238.9976956225, -1711.4866768224165, -2488.1760099702515, -0.01600000075995922, 0.03200000151991844, -0.9600000455975533, 0.0, 0.0, 0.0, 0.0, 0.0, 1.7011965635646062E9, 0.0, 2023-11-28 16:36:03.564
56.0, -1355.440721240826, -2423.28126593912, -1930.513917727396, -2257.9758179476485, -0.01600000075995922, 0.03200000151991844, -0.9600000455975533, 0.0, 0.0, 0.0, 0.0, 0.0, 1.7011965635803504E9, 0.0, 2023-11-28 16:36:03.580
56.0, -1376.9638454858214, -2465.037248944398, -1989.2677460312843, -2319.7851445153356, -0.01600000075995922, 0.03200000151991844, -0.9600000455975533, 0.0, 0.0, 0.0, 0.0, 0.0, 1.7011965635803504E9, 0.0, 2023-11-28 16:36:03.580
57.0, -1237.4206983391196, -2248.6653370079584, -1745.1083774240687, -2516.3598960363306, -0.01600000075995922, 0.03200000151991844, -0.9600000455975533, 0.0, 0.0, 0.0, 0.0, 0.0, 1.7011965635809968E9, 0.0, 2023-11-28 16:36:03.580
57.0, -1295.86037504673, -2337.716094852891, -1832.6930944863707, -2643.703489527572, -0.01600000075995922, 0.03200000151991844, -0.9600000455975533, 0.0, 0.0, 0.0, 0.0, 0.0, 1.7011965635809968E9, 0.0, 2023-11-28 16:36:03.580
58.0, -1393.2436299929395, -2488.288206968922, -2023.536449325271, -2856.473877806682, -0.01600000075995922, 0.03200000151991844, -0.9600000455975533, 0.0, 0.0, 0.0, 0.0, 0.0, 1.7011965635945947E9, 0.0, 2023-11-28 16:36:03.594
58.0, -1259.1046382822096, -2305.5305158342235, -1815.6017516888678, -3085.1107916478068, -0.01600000075995922, 0.03200000151991844, -0.9600000455975533, 0.0, 0.0, 0.0, 0.0, 0.0, 1.7011965635945947E9, 0.0, 2023-11-28 16:36:03.594
59.0, -1239.163491718471, -2257.7682535001077, -1748.2611130867153, -3034.2818113500252, -0.01600000075995922, 0.03200000151991844, -0.9600000455975533, 0.0, 0.0, 0.0, 0.0, 0.0, 1.701196563626726E9, 0.0, 2023-11-28 16:36:03.626
59.0, -1383.3628143100068, -2469.52138899127, -1506.7477236981504, -2830.6386489127763, -0.01600000075995922, 0.03200000151991844, -0.9600000455975533, 0.0, 0.0, 0.0, 0.0, 0.0, 1.701196563626726E9, 0.0, 2023-11-28 16:36:03.626
60.0, -1321.8339802389964, -2391.3986188168637, -1421.3732875096612, -2704.9069523024373, -0.01600000075995922, 0.03200000151991844, -0.9760000463575125, 0.0, 0.0, 0.0, 0.0, 0.0, 1.701196563627442E9, 0.0, 2023-11-28 16:36:03.627
60.0, -1213.8929877178743, -2228.9672839413397, -1224.583491741214, -2486.6052519888617, -0.01600000075995922, 0.03200000151991844, -0.9760000463575125, 0.0, 0.0, 0.0, 0.0, 0.0, 1.701196563627442E9, 0.0, 2023-11-28 16:36:03.627
61.0, -1340.0547728231177, -2406.709769235458, -1428.8119485215284, -2262.916225789115, -0.01600000075995922, 0.04800000227987766, -0.9760000463575125, 0.0, 0.0, 0.0, 0.0, 0.0, 1.7011965636280892E9, 0.0, 2023-11-28 16:36:03.628
61.0, -1356.5215523280203, -2451.3791343062185, -1493.317742957268, -2317.5075454423204, -0.01600000075995922, 0.04800000227987766, -0.9760000463575125, 0.0, 0.0, 0.0, 0.0, 0.0, 1.7011965636280892E9, 0.0, 2023-11-28 16:36:03.628
62.0, -1227.8802135521546, -2248.9271300048567, -1253.1039688033052, -2520.5710233864374, -0.01600000075995922, 0.04800000227987766, -0.9760000463575125, 0.0, 0.0, 0.0, 0.0, 0.0, 1.7011965636288407E9, 0.0, 2023-11-28 16:36:03.628
62.0, -1293.1938263783231, -2342.3872298975475, -1337.891240698751, -2646.2541012973525, -0.01600000075995922, 0.04800000227987766, -0.9760000463575125, 0.0, 0.0, 0.0, 0.0, 0.0, 1.7011965636288407E9, 0.0, 2023-11-28 16:36:03.628
63.0, -1392.7873621983454, -2494.668476293329, -1534.299566671718, -2862.7045511328615, -0.01600000075995922, 0.04800000227987766, -0.9760000463575125, 0.0, 0.0, 0.0, 0.0, 0.0, 1.7011965636395957E9, 0.0, 2023-11-28 16:36:03.639
63.0, -1264.695788715966, -2305.7623896314763, -1325.542091045063, -3089.6996488934383, -0.01600000075995922, 0.04800000227987766, -0.9760000463575125, 0.0, 0.0, 0.0, 0.0, 0.0, 1.7011965636395957E9, 0.0, 2023-11-28 16:36:03.639
64.0, -1243.2586821699515, -2263.31078523444, -1257.038343556691, -3035.587036434561, -0.01600000075995922, 0.04800000227987766, -0.9760000463575125, 0.0, 0.0, 0.0, 0.0, 0.0, 1.7011965636545832E9, 0.0, 2023-11-28 16:36:03.654
64.0, -1389.462591137737, -2475.082620225381, -1024.897143457085, -2832.7255130880512, -0.01600000075995922, 0.04800000227987766, -0.9760000463575125, 0.0, 0.0, 0.0, 0.0, 0.0, 1.7011965636545832E9, 0.0, 2023-11-28 16:36:03.654
65.0, -1331.36698522605, -2398.2613352355547, -929.0360277928412, -2711.8295071204193, -0.01600000075995922, 0.04800000227987766, -0.9760000463575125, 0.0, 0.0, 0.0, 0.0, 0.0, 1.7011965636702852E9, 0.0, 2023-11-28 16:36:03.670
65.0, -1226.402953069657, -2237.0118087460287, -730.9297872399911, -2490.808899539057, -0.01600000075995922, 0.04800000227987766, -0.9760000463575125, 0.0, 0.0, 0.0, 0.0, 0.0, 1.7011965636702852E9, 0.0, 2023-11-28 16:36:03.670
66.0, -1346.8800902422518, -2411.631477577146, -937.4283632934093, -2257.7252446506172, -0.01600000075995922, 0.04800000227987766, -0.9760000463575125, 0.0, 0.0, 0.0, 0.0, 0.0, 1.7011965636709156E9, 0.0, 2023-11-28 16:36:03.670
66.0, -1349.228747414425, -2446.4723855643533, -992.9583978354931, -2304.7806658931077, -0.01600000075995922, 0.04800000227987766, -0.9760000463575125, 0.0, 0.0, 0.0, 0.0, 0.0, 1.7011965636709156E9, 0.0, 2023-11-28 16:36:03.670
67.0, -1218.661360161379, -2241.6679841908626, -1234.9841535179876, -2503.330084590707, -0.01600000075995922, 0.04800000227987766, -0.9760000463575125, 0.0, 0.0, 0.0, 0.0, 0.0, 1.7011965636845503E9, 0.0, 2023-11-28 16:36:03.684
67.0, -1280.5978433275595, -2326.87038498139, -1328.4666928104125, -2632.682004358154, -0.01600000075995922, 0.04800000227987766, -0.9760000463575125, 0.0, 0.0, 0.0, 0.0, 0.0, 1.7011965636845503E9, 0.0, 2023-11-28 16:36:03.684
68.0, -1391.7925488101318, -2489.7766871512868, -1520.37965903664, -2845.2803572393022, -0.01600000075995922, 0.04800000227987766, -0.9760000463575125, 0.0, 0.0, 0.0, 0.0, 0.0, 1.701196563700388E9, 0.0, 2023-11-28 16:36:03.700
68.0, -1257.436642901972, -2307.912832105998, -1308.8434377429076, -3078.5023884261027, -0.01600000075995922, 0.04800000227987766, -0.9760000463575125, 0.0, 0.0, 0.0, 0.0, 0.0, 1.701196563700388E9, 0.0, 2023-11-28 16:36:03.700
69.0, -1237.3832993395627, -2253.216795254033, -1253.7434916957282, -3023.1967478813604, -0.01600000075995922, 0.04800000227987766, -0.9760000463575125, 0.0, 0.0, 0.0, 0.0, 0.0, 1.7011965637009525E9, 0.0, 2023-11-28 16:36:03.700
69.0, -1374.4281933158636, -2472.831200452056, -1011.7027764134109, -2824.1013037902303, -0.01600000075995922, 0.04800000227987766, -0.9760000463575125, 0.0, 0.0, 0.0, 0.0, 0.0, 1.7011965637009525E9, 0.0, 2023-11-28 16:36:03.700
70.0, -1312.143899453804, -2378.4510851702653, -904.2030920870602, -2692.3857672507875, -0.01600000075995922, 0.04800000227987766, -0.9760000463575125, 0.0, 0.0, 0.0, 0.0, 0.0, 1.701196563714625E9, 0.0, 2023-11-28 16:36:03.714
70.0, -1212.318489836529, -2219.2622435563244, -725.8472632002085, -2483.3029203279875, -0.01600000075995922, 0.04800000227987766, -0.9760000463575125, 0.0, 0.0, 0.0, 0.0, 0.0, 1.701196563714625E9, 0.0, 2023-11-28 16:36:03.714
71.0, -1336.4756885655224, -2411.7361947759055, -931.5118415635079, -2251.4870915245265, -0.01600000075995922, 0.03200000151991844, -0.9760000463575125, 0.0, 0.0, 0.0, 0.0, 0.0, 1.7011965637304204E9, 0.0, 2023-11-28 16:36:03.730
71.0, -1354.0457385573536, -2453.940965775866, -1001.4554505348206, -2306.9685073671862, -0.01600000075995922, 0.03200000151991844, -0.9760000463575125, 0.0, 0.0, 0.0, 0.0, 0.0, 1.7011965637304204E9, 0.0, 2023-11-28 16:36:03.730
72.0, -1226.3580742701888, -2241.1256986972876, -757.2100642286241, -2513.9626201647334, -0.01600000075995922, 0.03200000151991844, -0.9760000463575125, 0.0, 0.0, 0.0, 0.0, 0.0, 1.7011965637310104E9, 0.0, 2023-11-28 16:36:03.731
72.0, -1289.023837927729, -2328.5795192611404, -858.5089944284409, -2646.957202489022, -0.01600000075995922, 0.03200000151991844, -0.9760000463575125, 0.0, 0.0, 0.0, 0.0, 0.0, 1.7011965637310104E9, 0.0, 2023-11-28 16:36:03.731
73.0, -1385.1991051882505, -2486.1602038941346, -1037.2649926105514, -2859.503196770791, -0.01600000075995922, 0.03200000151991844, -0.9760000463575125, 0.0, 0.0, 0.0, 0.0, 0.0, 1.701196563744608E9, 0.0, 2023-11-28 16:36:03.744
73.0, -1258.4426759900525, -2299.771069902461, -832.3222149387002, -3078.5622268253937, -0.01600000075995922, 0.03200000151991844, -0.9760000463575125, 0.0, 0.0, 0.0, 0.0, 0.0, 1.701196563744608E9, 0.0, 2023-11-28 16:36:03.744
74.0, -1246.9013447267935, -2266.650515894871, -787.7949660662562, -3026.446720942855, -0.01600000075995922, 0.03200000151991844, -0.9760000463575125, 0.0, 0.0, 0.0, 0.0, 0.0, 1.701196563760333E9, 0.0, 2023-11-28 16:36:03.760
74.0, -1376.95636568591, -2465.654332437087, -1032.6611757650971, -2830.848083310295, -0.01600000075995922, 0.03200000151991844, -0.9760000463575125, 0.0, 0.0, 0.0, 0.0, 0.0, 1.701196563760333E9, 0.0, 2023-11-28 16:36:03.760
75.0, -1308.1048075016588, -2379.4945172579028, -918.9831767119467, -2703.003343224991, -0.01600000075995922, 0.03200000151991844, -0.9760000463575125, 0.0, 0.0, 0.0, 0.0, 0.0, 1.7011965637610433E9, 0.0, 2023-11-28 16:36:03.761
75.0, -1200.9865929707885, -2211.475771848578, -719.4108953764662, -2486.410777191166, -0.01600000075995922, 0.03200000151991844, -0.9760000463575125, 0.0, 0.0, 0.0, 0.0, 0.0, 1.7011965637610433E9, 0.0, 2023-11-28 16:36:03.761
76.0, -1340.1333107221872, -2418.7410273929127, -935.6743502141908, -2259.8233285257593, -0.01600000075995922, 0.03200000151991844, -0.9760000463575125, 0.0, 0.0, 0.0, 0.0, 0.0, 1.7011965637745628E9, 0.0, 2023-11-28 16:36:03.774
76.0, -1355.5753576392308, -2446.9997114581056, -991.8065086491406, -2302.6339633185416, -0.01600000075995922, 0.03200000151991844, -0.9760000463575125, 0.0, 0.0, 0.0, 0.0, 0.0, 1.7011965637745628E9, 0.0, 2023-11-28 16:36:03.774
77.0, -1225.1762658841908, -2241.2715547955595, -756.7799757337198, -2505.2785724676214, -0.01600000075995922, 0.03200000151991844, -0.9760000463575125, 0.0, 0.0, 0.0, 0.0, 0.0, 1.7011965637903926E9, 0.0, 2023-11-28 16:36:03.790
77.0, -1304.5219833441079, -2341.1119240126573, -851.006755117327, -2642.1663906457834, -0.01600000075995922, 0.03200000151991844, -0.9760000463575125, 0.0, 0.0, 0.0, 0.0, 0.0, 1.7011965637903926E9, 0.0, 2023-11-28 16:36:03.790
78.0, -1391.9907635077834, -2495.0836051884107, -1028.5211065141484, -2844.3977408497594, -0.01600000075995922, 0.03200000151991844, -0.9760000463575125, 0.0, 0.0, 0.0, 0.0, 0.0, 1.7011965637910793E9, 0.0, 2023-11-28 16:36:03.791
78.0, -1259.5758656766266, -2303.9597578528337, -817.1980595178902, -3068.4794565448537, -0.01600000075995922, 0.03200000151991844, -0.9760000463575125, 0.0, 0.0, 0.0, 0.0, 0.0, 1.7011965637910793E9, 0.0, 2023-11-28 16:36:03.791
79.0, -1260.4323027664796, -2283.0013585011475, -771.6086790580302, -3028.5747240176424, -0.01600000075995922, 0.03200000151991844, -0.9760000463575125, 0.0, 0.0, 0.0, 0.0, 0.0, 1.7011965638046284E9, 0.0, 2023-11-28 16:36:03.804
79.0, -1396.1158731589094, -2496.127037276048, -1014.8068933766335, -2827.179241453763, -0.01600000075995922, 0.03200000151991844, -0.9760000463575125, 0.0, 0.0, 0.0, 0.0, 0.0, 1.7011965638046284E9, 0.0, 2023-11-28 16:36:03.804
80.0, -1340.0472930232063, -2413.2171951583587, -916.7392367385328, -2696.9110461971723, -0.01600000075995922, 0.03200000151991844, -0.9760000463575125, 0.0, 0.0, 0.0, 0.0, 0.0, 1.7011965638203175E9, 0.0, 2023-11-28 16:36:03.820
80.0, -1234.918705268763, -2245.751954942476, -743.7239849884063, -2487.566406277474, -0.01600000075995922, 0.03200000151991844, -0.9760000463575125, 0.0, 0.0, 0.0, 0.0, 0.0, 1.7011965638203175E9, 0.0, 2023-11-28 16:36:03.820
81.0, -1368.8669620817527, -2443.559003498871, -961.0046926140785, -2275.721643237397, -0.01600000075995922, 0.03200000151991844, -0.9760000463575125, 0.0, 0.0, 0.0, 0.0, 0.0, 1.7011965638210967E9, 0.0, 2023-11-28 16:36:03.821
81.0, -1377.618327978067, -2479.38724507438, -1008.0825532563031, -2308.079257654026, -0.01600000075995922, 0.03200000151991844, -0.9760000463575125, 0.0, 0.0, 0.0, 0.0, 0.0, 1.7011965638210967E9, 0.0, 2023-11-28 16:36:03.821
82.0, -1246.8041073279455, -2272.391262326855, -764.0989599470049, -2514.5759637574665, -0.01600000075995922, 0.03200000151991844, -0.9760000463575125, 0.0, 0.0, 0.0, 0.0, 0.0, 1.7011965638345797E9, 0.0, 2023-11-28 16:36:03.834
82.0, -1308.3217216990888, -2359.0297847003676, -863.5989982681349, -2648.793493367266, -0.01600000075995922, 0.03200000151991844, -0.9760000463575125, 0.0, 0.0, 0.0, 0.0, 0.0, 1.7011965638345797E9, 0.0, 2023-11-28 16:36:03.834
83.0, -1409.0222679059952, -2520.260611690115, -1039.247139587067, -2857.3751936960034, -0.01600000075995922, 0.03200000151991844, -0.9760000463575125, 0.0, 0.0, 0.0, 0.0, 0.0, 1.7011965638503077E9, 0.0, 2023-11-28 16:36:03.850
83.0, -1274.5317255994305, -2321.589646243956, -808.0764435259625, -3066.946097563021, -0.01600000075995922, 0.03200000151991844, -0.9760000463575125, 0.0, 0.0, 0.0, 0.0, 0.0, 1.7011965638503077E9, 0.0, 2023-11-28 16:36:03.850
84.0, -1260.656696763821, -2289.1759333279915, -771.1037925640121, -3033.3131772615016, -0.01600000075995922, 0.03200000151991844, -0.9760000463575125, 0.0, 0.0, 0.0, 0.0, 0.0, 1.7011965638511202E9, 0.0, 2023-11-28 16:36:03.851
84.0, -1399.8408135147765, -2509.9721469120122, -531.1125424574129, -2830.52271201415, -0.01600000075995922, 0.03200000151991844, -0.9760000463575125, 0.0, 0.0, 0.0, 0.0, 0.0, 1.7011965638511202E9, 0.0, 2023-11-28 16:36:03.851
85.0, -1335.0994053818285, -2418.400696496945, -423.8035930288024, -2694.2557172286324, -0.01600000075995922, 0.03200000151991844, -0.9760000463575125, 0.0, 0.0, 0.0, 0.0, 0.0, 1.7011965638645551E9, 0.0, 2023-11-28 16:36:03.864
85.0, -1242.5032223789021, -2265.685621706303, -238.3943128255196, -2489.193262758199, -0.01600000075995922, 0.03200000151991844, -0.9760000463575125, 0.0, 0.0, 0.0, 0.0, 0.0, 1.7011965638645551E9, 0.0, 2023-11-28 16:36:03.864
86.0, -1370.912687357515, -2456.6598730436526, -459.73655180307105, -2260.2160180211067, -0.01600000075995922, 0.03200000151991844, -0.9760000463575125, 0.0, 0.0, 0.0, 0.0, 0.0, 1.7011965638803046E9, 0.0, 2023-11-28 16:36:03.880
86.0, -1398.0568812359124, -2490.098318547476, -510.5281331012957, -2293.6843827245757, -0.01600000075995922, 0.03200000151991844, -0.9760000463575125, 0.0, 0.0, 0.0, 0.0, 0.0, 1.7011965638803046E9, 0.0, 2023-11-28 16:36:03.880
87.0, -1250.222375887446, -2282.234679010231, -738.5068245502189, -2492.162743323017, -0.01600000075995922, 0.03200000151991844, -0.9760000463575125, 0.0, 0.0, 0.0, 0.0, 0.0, 1.7011965638810513E9, 0.0, 2023-11-28 16:36:03.881
87.0, -1336.4756885655224, -2382.4415584229864, -862.1254776855931, -2643.811946626287, -0.01600000075995922, 0.03200000151991844, -0.9760000463575125, 0.0, 0.0, 0.0, 0.0, 0.0, 1.7011965638810513E9, 0.0, 2023-11-28 16:36:03.881
88.0, -1421.012387163937, -2534.083281926345, -1053.5559968175367, -2851.9822579598986, -0.01600000075995922, 0.03200000151991844, -0.9760000463575125, 0.0, 0.0, 0.0, 0.0, 0.0, 1.7011965638945603E9, 0.0, 2023-11-28 16:36:03.894
88.0, -1291.795103794895, -2333.347891704645, -813.9630460562184, -3079.8524923101068, -0.01600000075995922, 0.03200000151991844, -0.9760000463575125, 0.0, 0.0, 0.0, 0.0, 0.0, 1.7011965638945603E9, 0.0, 2023-11-28 16:36:03.894
89.0, -1281.6487552151084, -2308.238203402143, -786.8225920777768, -3050.928106052801, -0.01600000075995922, 0.03200000151991844, -0.9760000463575125, 0.0, 0.0, 0.0, 0.0, 0.0, 1.7011965639103022E9, 0.0, 2023-11-28 16:36:03.910
89.0, -1416.1804364211857, -2526.30429001851, -550.915312722791, -2866.8782794834115, -0.01600000075995922, 0.03200000151991844, -0.9760000463575125, 0.0, 0.0, 0.0, 0.0, 0.0, 1.7011965639103022E9, 0.0, 2023-11-28 16:36:03.910
90.0, -1336.5991052640602, -2420.483820772264, -434.60816400079057, -2716.8447129609995, -0.01600000075995922, 0.03200000151991844, -0.9760000463575125, 0.0, 0.0, 0.0, 0.0, 0.0, 1.7011965639110067E9, 0.0, 2023-11-28 16:36:03.911
90.0, -1237.5628145374358, -2266.052131901961, -245.72077683871612, -2514.302951060701, -0.01600000075995922, 0.03200000151991844, -0.9760000463575125, 0.0, 0.0, 0.0, 0.0, 0.0, 1.7011965639110067E9, 0.0, 2023-11-28 16:36:03.911
91.0, -1372.4198670396581, -2459.801389006432, -473.1403532442637, -2293.822759022936, -0.01600000075995922, 0.03200000151991844, -0.9760000463575125, 0.0, 0.0, 0.0, 0.0, 0.0, 1.701196563924682E9, 0.0, 2023-11-28 16:36:03.924
91.0, -1384.3164887987077, -2484.492208513897, -494.53632089076564, -2321.3072837973014, -0.01600000075995922, 0.03200000151991844, -0.9760000463575125, 0.0, 0.0, 0.0, 0.0, 0.0, 1.701196563924682E9, 0.0, 2023-11-28 16:36:03.924
92.0, -1248.6703174058348, -2276.336856780108, -735.8440157817677, -2509.7178337150253, -0.01600000075995922, 0.03200000151991844, -0.9760000463575125, 0.0, 0.0, 0.0, 0.0, 0.0, 1.7011965639403815E9, 0.0, 2023-11-28 16:36:03.940
92.0, -1320.19964395836, -2372.426106341649, -840.1573053458706, -2653.434709212277, -0.01600000075995922, 0.03200000151991844, -0.9760000463575125, 0.0, 0.0, 0.0, 0.0, 0.0, 1.7011965639403815E9, 0.0, 2023-11-28 16:36:03.940
93.0, -1423.5629989337176, -2531.2559175598435, -1032.807031863369, -2861.5115230469964, -0.01600000075995922, 0.03200000151991844, -0.9760000463575125, 0.0, 0.0, 0.0, 0.0, 0.0, 1.701196563941136E9, 0.0, 2023-11-28 16:36:03.941
93.0, -1275.9790668822825, -2330.1727166422643, -791.9163358174264, -3063.6849048016593, -0.01600000075995922, 0.03200000151991844, -0.9760000463575125, 0.0, 0.0, 0.0, 0.0, 0.0, 1.701196563941136E9, 0.0, 2023-11-28 16:36:03.941
94.0, -1272.3139649257064, -2309.5696077863686, -746.1063012601808, -3033.14114186354, -0.01600000075995922, 0.03200000151991844, -0.9760000463575125, 0.0, 0.0, 0.0, 0.0, 0.0, 1.701196563954622E9, 0.0, 2023-11-28 16:36:03.954
94.0, -1412.5789127638564, -2520.8702153828926, -520.4837467833422, -2836.1138624479063, -0.01600000075995922, 0.03200000151991844, -0.9760000463575125, 0.0, 0.0, 0.0, 0.0, 0.0, 1.701196563954622E9, 0.0, 2023-11-28 16:36:03.954
95.0, -1342.10049809888, -2418.6437899940647, -406.0727273388766, -2689.8164559812285, -0.01600000075995922, 0.03200000151991844, -0.9760000463575125, 0.0, 0.0, 0.0, 0.0, 0.0, 1.701196563970279E9, 0.0, 2023-11-28 16:36:03.970
95.0, -1235.5133493617177, -2255.064305832144, -220.15108084166422, -2481.4965486493893, -0.01600000075995922, 0.03200000151991844, -0.9760000463575125, 0.0, 0.0, 0.0, 0.0, 0.0, 1.701196563970279E9, 0.0, 2023-11-28 16:36:03.970
96.0, -1371.9935184447095, -2454.6328472676687, -452.862615684513, -2275.8114008363336, -0.01600000075995922, 0.03200000151991844, -0.9760000463575125, 0.0, 0.0, 0.0, 0.0, 0.0, 1.7011965639710004E9, 0.0, 2023-11-28 16:36:03.971
96.0, -1378.3214291697368, -2478.9608964794315, -492.68507041269913, -2303.6138171069324, -0.01600000075995922, 0.03200000151991844, -0.9760000463575125, 0.0, 0.0, 0.0, 0.0, 0.0, 1.7011965639710004E9, 0.0, 2023-11-28 16:36:03.971
97.0, -1235.4946498619393, -2262.5553254433908, -733.0877095144242, -2494.197248898912, -0.01600000075995922, 0.03200000151991844, -0.9760000463575125, 0.0, 0.0, 0.0, 0.0, 0.0, 1.7011965639847095E9, 0.0, 2023-11-28 16:36:03.984
97.0, -1314.9862234201282, -2370.9974645585753, -845.916751277633, -2642.5478604412638, -0.01600000075995922, 0.03200000151991844, -0.9760000463575125, 0.0, 0.0, 0.0, 0.0, 0.0, 1.7011965639847095E9, 0.0, 2023-11-28 16:36:03.984
98.0, -1406.4305172367021, -2523.192693255376, -1025.8769972454756, -2854.4805111302994, -0.01600000075995922, 0.03200000151991844, -0.9760000463575125, 0.0, 0.0, 0.0, 0.0, 0.0, 1.701196564000305E9, 0.0, 2023-11-28 16:36:04.000
98.0, -1268.5179664706811, -2321.832739741076, -803.7493792772293, -3066.8039813647047, -0.01600000075995922, 0.03200000151991844, -0.9760000463575125, 0.0, 0.0, 0.0, 0.0, 0.0, 1.701196564000305E9, 0.0, 2023-11-28 16:36:04.000
99.0, -1261.3523181555793, -2299.576595104765, -754.6444928590208, -3039.0688832933083, -0.01600000075995922, 0.03200000151991844, -0.9760000463575125, 0.0, 0.0, 0.0, 0.0, 0.0, 1.701196564001187E9, 0.0, 2023-11-28 16:36:04.001
99.0, -1407.709563021548, -2511.4494073945098, -524.9267479307018, -2844.8914076439105, -0.01600000075995922, 0.03200000151991844, -0.9760000463575125, 0.0, 0.0, 0.0, 0.0, 0.0, 1.701196564001187E9, 0.0, 2023-11-28 16:36:04.001
100.0, -1328.7677547568455, -2406.118865042459, -404.1279793619178, -2692.875694144983, -0.01600000075995922, 0.03200000151991844, -0.9760000463575125, 0.0, 0.0, 0.0, 0.0, 0.0, 1.7011965640153248E9, 0.0, 2023-11-28 16:36:04.015
100.0, -1235.2739957645535, -2255.0306467325427, -224.69131938787177, -2487.5477067776956, -0.01600000075995922, 0.03200000151991844, -0.9760000463575125, 0.0, 0.0, 0.0, 0.0, 0.0, 1.7011965640153248E9, 0.0, 2023-11-28 16:36:04.015
0.0, -1374.0766427200288, -2450.3918007179163, -1431.8842763351277, -2282.402974508237, -0.01600000075995922, 0.03200000151991844, -0.9760000463575125, 0.0, 0.0, 0.0, 0.0, 0.0, 1.7011965640159748E9, 0.0, 2023-11-28 16:36:04.015
1.0, -1373.1641071308404, -2475.3818122218363, -1462.6486933706328, -2289.3928475254215, -0.01600000075995922, 0.03200000151991844, -0.9760000463575125, 0.0, 0.0, 0.0, 0.0, 0.0, 1.7011965640460703E9, 0.0, 2023-11-28 16:36:04.046
1.0, -1230.4944036211818, -2258.706968388986, -1694.801113170106, -2487.399980729446, -0.01600000075995922, 0.03200000151991844, -0.9760000463575125, 0.0, 0.0, 0.0, 0.0, 0.0, 1.7011965640460703E9, 0.0, 2023-11-28 16:36:04.046
2.0, -1318.2436762815341, -2374.726144814398, -1824.149293037597, -2649.8836742043495, -0.01600000075995922, 0.03200000151991844, -0.9760000463575125, 0.0, 0.0, 0.0, 0.0, 0.0, 1.7011965640467272E9, 0.0, 2023-11-28 16:36:04.046
2.0, -1408.3341263141483, -2514.94621385308, -2003.0661069178022, -2850.746221024543, -0.01600000075995922, 0.03200000151991844, -0.9760000463575125, 0.0, 0.0, 0.0, 0.0, 0.0, 1.7011965640467272E9, 0.0, 2023-11-28 16:36:04.046
3.0, -1257.4703020015731, -2309.382612788584, -1770.3396124751307, -3055.6721691465937, -0.01600000075995922, 0.03200000151991844, -0.9760000463575125, 0.0, 0.0, 0.0, 0.0, 0.0, 1.7011965640474687E9, 0.0, 2023-11-28 16:36:04.047
3.0, -1255.144084229134, -2289.38536772551, -1739.6724328384735, -3035.428090686444, -0.01600000075995922, 0.03200000151991844, -0.9760000463575125, 0.0, 0.0, 0.0, 0.0, 0.0, 1.7011965640474687E9, 0.0, 2023-11-28 16:36:04.047
4.0, -1398.1989974342287, -2501.5050134123303, -1514.9362346511334, -2840.67467044387, -0.01600000075995922, 0.03200000151991844, -0.9760000463575125, 0.0, 0.0, 0.0, 0.0, 0.0, 1.7011965640595956E9, 0.0, 2023-11-28 16:36:04.059
4.0, -1315.1881780177355, -2383.4401117111556, -1374.701206012629, -2676.231269392185, -0.01600000075995922, 0.03200000151991844, -0.9760000463575125, 0.0, 0.0, 0.0, 0.0, 0.0, 1.7011965640595956E9, 0.0, 2023-11-28 16:36:04.059
5.0, -1220.7332647368312, -2235.7365028611384, -1195.481460236013, -2480.9860523054376, -0.01600000075995922, 0.03200000151991844, -0.9760000463575125, 0.0, 0.0, 0.0, 0.0, 0.0, 1.7011965640756276E9, 0.0, 2023-11-28 16:36:04.075
5.0, -1367.4420601986349, -2443.772177796345, -1435.089370597154, -2275.383182291407, -0.01600000075995922, 0.03200000151991844, -0.9760000463575125, 0.0, 0.0, 0.0, 0.0, 0.0, 1.7011965640756276E9, 0.0, 2023-11-28 16:36:04.075
6.0, -1370.6321948608384, -2464.962450945284, -1472.2527564568445, -2306.4580110232346, -0.01600000075995922, 0.03200000151991844, -0.9760000463575125, 0.0, 0.0, 0.0, 0.0, 0.0, 1.70119656407595E9, 0.0, 2023-11-28 16:36:04.075
6.0, -1224.3721873937175, -2249.1964028016664, -1713.0106860543601, -2507.285028793849, -0.01600000075995922, 0.03200000151991844, -0.9760000463575125, 0.0, 0.0, 0.0, 0.0, 0.0, 1.70119656407595E9, 0.0, 2023-11-28 16:36:04.075
7.0, -1306.6724258186296, -2358.5473376060836, -1847.1758570647798, -2673.863912720233, -0.01600000075995922, 0.03200000151991844, -0.9760000463575125, 0.0, 0.0, 0.0, 0.0, 0.0, 1.7011965640896292E9, 0.0, 2023-11-28 16:36:04.089
7.0, -1403.7751882681623, -2510.6715082037263, -2024.922082258854, -2873.675547652878, -0.01600000075995922, 0.03200000151991844, -0.9760000463575125, 0.0, 0.0, 0.0, 0.0, 0.0, 1.7011965640896292E9, 0.0, 2023-11-28 16:36:04.089
8.0, -1260.7539341626689, -2306.996556616854, -2263.8025820786133, -3068.271892097313, -0.01600000075995922, 0.03200000151991844, -0.9760000463575125, 0.0, 0.0, 0.0, 0.0, 0.0, 1.7011965641053216E9, 0.0, 2023-11-28 16:36:04.105
8.0, -1261.307439356111, -2288.278357338626, -2234.5266452254727, -3050.013700513635, -0.01600000075995922, 0.03200000151991844, -0.9760000463575125, 0.0, 0.0, 0.0, 0.0, 0.0, 1.7011965641053216E9, 0.0, 2023-11-28 16:36:04.105
9.0, -1394.444137878716, -2491.377364332322, -1993.649038829375, -2850.9444357221946, -0.01600000075995922, 0.03200000151991844, -0.9760000463575125, 0.0, 0.0, 0.0, 0.0, 0.0, 1.701196564106079E9, 0.0, 2023-11-28 16:36:04.106
9.0, -1309.8476008810103, -2374.2623972198926, -1867.7228674213402, -2678.6734240632504, -0.01600000075995922, 0.03200000151991844, -0.9760000463575125, 0.0, 0.0, 0.0, 0.0, 0.0, 1.701196564106079E9, 0.0, 2023-11-28 16:36:04.106
10.0, -1216.3725413884968, -2224.752416691277, -1689.4380966336466, -2481.438580200076, -0.01600000075995922, 0.03200000151991844, -0.9760000463575125, 0.0, 0.0, 0.0, 0.0, 0.0, 1.70119656411959E9, 0.0, 2023-11-28 16:36:04.119
10.0, -1358.3129644067958, -2439.1234821514226, -1924.603005847428, -2277.7804581630044, -0.01600000075995922, 0.03200000151991844, -0.9760000463575125, 0.0, 0.0, 0.0, 0.0, 0.0, 1.70119656411959E9, 0.0, 2023-11-28 16:36:04.119
11.0, -1353.2790590664372, -2449.901873823721, -1946.963867682498, -2287.2835439504124, -0.01600000075995922, 0.03200000151991844, -0.9760000463575125, 0.0, 0.0, 0.0, 0.0, 0.0, 1.7011965641353073E9, 0.0, 2023-11-28 16:36:04.135
11.0, -1213.6760735204443, -2237.93930393504, -2190.829654143192, -2487.168106932193, -0.01600000075995922, 0.03200000151991844, -0.9760000463575125, 0.0, 0.0, 0.0, 0.0, 0.0, 1.7011965641353073E9, 0.0, 2023-11-28 16:36:04.135
12.0, -1294.1175816673785, -2354.1679147579707, -2308.0381187545136, -2652.071515678428, -0.01600000075995922, 0.03200000151991844, -0.9760000463575125, 0.0, 0.0, 0.0, 0.0, 0.0, 1.7011965641360283E9, 0.0, 2023-11-28 16:36:04.136
12.0, -1391.4559578141198, -2503.6143169873394, -2502.1763254543766, -2841.9836354283616, -0.01600000075995922, 0.03200000151991844, -0.9760000463575125, 0.0, 0.0, 0.0, 0.0, 0.0, 1.7011965641360283E9, 0.0, 2023-11-28 16:36:04.136
13.0, -1246.3478395333514, -2295.705798650626, -2270.571800998412, -3049.4601953201927, -0.01600000075995922, 0.03200000151991844, -0.9760000463575125, 0.0, 0.0, 0.0, 0.0, 0.0, 1.7011965641657033E9, 0.0, 2023-11-28 16:36:04.165
13.0, -1248.9956887019798, -2287.3770414493047, -2233.6253293361515, -3038.2816343526356, -0.01600000075995922, 0.03200000151991844, -0.9760000463575125, 0.0, 0.0, 0.0, 0.0, 0.0, 1.7011965641657033E9, 0.0, 2023-11-28 16:36:04.165
14.0, -1394.6348727764562, -2500.1399499285035, -1996.809254291933, -2838.7299224669114, -0.01600000075995922, 0.03200000151991844, -0.9760000463575125, 0.0, 0.0, 0.0, 0.0, 0.0, 1.7011965641664114E9, 0.0, 2023-11-28 16:36:04.166
14.0, -1317.3947189915925, -2391.56691431487, -1872.2668458675034, -2679.5747399525717, -0.01600000075995922, 0.03200000151991844, -0.9760000463575125, 0.0, 0.0, 0.0, 0.0, 0.0, 1.7011965641664114E9, 0.0, 2023-11-28 16:36:04.166
15.0, -1216.1631069909781, -2239.1360719208606, -1706.065691836644, -2491.6821661787108, -0.01600000075995922, 0.03200000151991844, -0.9760000463575125, 0.0, 0.0, 0.0, 0.0, 0.0, 1.7011965641803453E9, 0.0, 2023-11-28 16:36:04.180
15.0, -1362.1762810610235, -2447.5457368516363, -1945.8082385961898, -2291.049623205792, -0.01600000075995922, 0.03200000151991844, -0.9760000463575125, 0.0, 0.0, 0.0, 0.0, 0.0, 1.7011965641803453E9, 0.0, 2023-11-28 16:36:04.180
16.0, -1365.7142264191061, -2470.160911883693, -1967.6529942373745, -2299.625213804189, -0.01600000075995922, 0.03200000151991844, -0.9760000463575125, 0.0, 0.0, 0.0, 0.0, 0.0, 1.7011965641810308E9, 0.0, 2023-11-28 16:36:04.181
16.0, -1225.4305790811777, -2255.3709776285104, -2197.1089461687952, -2497.74828390684, -0.01600000075995922, 0.03200000151991844, -0.9760000463575125, 0.0, 0.0, 0.0, 0.0, 0.0, 1.7011965641810308E9, 0.0, 2023-11-28 16:36:04.181
17.0, -1305.9057463277131, -2367.3136631022207, -2335.1748328329995, -2676.6089992877096, -0.01600000075995922, 0.03200000151991844, -0.9760000463575125, 0.0, 0.0, 0.0, 0.0, 0.0, 1.7011965641953151E9, 0.0, 2023-11-28 16:36:04.195
17.0, -1395.0313021717593, -2513.895301965531, -2507.984390085563, -2864.868083257228, -0.01600000075995922, 0.03200000151991844, -0.9760000463575125, 0.0, 0.0, 0.0, 0.0, 0.0, 1.7011965641953151E9, 0.0, 2023-11-28 16:36:04.195
18.0, -1254.9421296315268, -2305.4594577350654, -2264.629099968821, -3057.998386919033, -0.01600000075995922, 0.03200000151991844, -0.9760000463575125, 0.0, 0.0, 0.0, 0.0, 0.0, 1.701196564195995E9, 0.0, 2023-11-28 16:36:04.195
18.0, -1258.244461292401, -2303.256656661164, -2243.2854909216985, -3050.1632965118624, -0.01600000075995922, 0.03200000151991844, -0.9760000463575125, 0.0, 0.0, 0.0, 0.0, 0.0, 1.701196564195995E9, 0.0, 2023-11-28 16:36:04.195
19.0, -1399.8894322142005, -2517.79227771936, -2008.9863685476594, -2850.013200633228, -0.01600000075995922, 0.03200000151991844, -0.9760000463575125, 0.0, 0.0, 0.0, 0.0, 0.0, 1.7011965642097552E9, 0.0, 2023-11-28 16:36:04.209
19.0, -1319.1300325710326, -2392.4158716048114, -1870.6175499870442, -2676.242489092052, -0.01600000075995922, 0.03200000151991844, -0.9760000463575125, 0.0, 0.0, 0.0, 0.0, 0.0, 1.7011965642097552E9, 0.0, 2023-11-28 16:36:04.209
20.0, -1229.9558580275625, -2252.1023050672375, -1706.8061920278706, -2491.4577721813694, -0.01600000075995922, 0.03200000151991844, -0.9760000463575125, 0.0, 0.0, 0.0, 0.0, 0.0, 1.7011965642253215E9, 0.0, 2023-11-28 16:36:04.225
20.0, -1367.3036839002743, -2454.000804175157, -1946.4851604881696, -2285.1817201753147, -0.01600000075995922, 0.03200000151991844, -0.9760000463575125, 0.0, 0.0, 0.0, 0.0, 0.0, 1.7011965642253215E9, 0.0, 2023-11-28 16:36:04.225
21.0, -1364.6520948316902, -2469.2147171949036, -1973.3189426702447, -2293.970485071186, -0.01600000075995922, 0.03200000151991844, -0.9760000463575125, 0.0, 0.0, 0.0, 0.0, 0.0, 1.701196564225968E9, 0.0, 2023-11-28 16:36:04.225
21.0, -1219.9217064464465, -2249.8097463943996, -2200.5047753285617, -2487.4261600291356, -0.01600000075995922, 0.03200000151991844, -0.9760000463575125, 0.0, 0.0, 0.0, 0.0, 0.0, 1.701196564225968E9, 0.0, 2023-11-28 16:36:04.225
22.0, -1321.2879548454657, -2378.720357967075, -2333.877087548375, -2665.2023044228554, -0.01600000075995922, 0.03200000151991844, -0.9760000463575125, 0.0, 0.0, 0.0, 0.0, 0.0, 1.7011965642395985E9, 0.0, 2023-11-28 16:36:04.239
22.0, -1405.3197669498622, -2518.573916810099, -2508.803428175859, -2852.447875504382, -0.01600000075995922, 0.03200000151991844, -0.9760000463575125, 0.0, 0.0, 0.0, 0.0, 0.0, 1.7011965642395985E9, 0.0, 2023-11-28 16:36:04.239
23.0, -1250.2186359874904, -2303.7241441556253, -2272.7746020723134, -3047.780980240088, -0.01600000075995922, 0.03200000151991844, -0.9760000463575125, 0.0, 0.0, 0.0, 0.0, 0.0, 1.7011965642553163E9, 0.0, 2023-11-28 16:36:04.255
23.0, -1263.4803212303668, -2298.1105543221347, -2252.1266144169495, -3049.7145085171796, -0.01600000075995922, 0.03200000151991844, -0.9760000463575125, 0.0, 0.0, 0.0, 0.0, 0.0, 1.7011965642553163E9, 0.0, 2023-11-28 16:36:04.255
24.0, -1403.1207057759166, -2505.899395860266, -2021.7169879968278, -2857.018033250235, -0.01600000075995922, 0.03200000151991844, -0.9760000463575125, 0.0, 0.0, 0.0, 0.0, 0.0, 1.701196564256013E9, 0.0, 2023-11-28 16:36:04.256
24.0, -1305.9468852272257, -2383.772962807212, -1873.9161417479627, -2678.4677295656875, -0.01600000075995922, 0.03200000151991844, -0.9760000463575125, 0.0, 0.0, 0.0, 0.0, 0.0, 1.701196564256013E9, 0.0, 2023-11-28 16:36:04.256
25.0, -1224.3609676938504, -2252.6221511610784, -1711.589524071198, -2500.048322379589, -0.01600000075995922, 0.03200000151991844, -0.9760000463575125, 0.0, 0.0, 0.0, 0.0, 0.0, 1.7011965642695875E9, 0.0, 2023-11-28 16:36:04.269
25.0, -1370.538697361946, -2458.271769924555, -1471.295342068188, -2303.6942249559797, -0.01600000075995922, 0.03200000151991844, -0.9760000463575125, 0.0, 0.0, 0.0, 0.0, 0.0, 1.7011965642695875E9, 0.0, 2023-11-28 16:36:04.269
26.0, -1363.0663772504777, -2457.1909388373606, -1478.8349803788587, -2297.6430668276735, -0.01600000075995922, 0.03200000151991844, -0.9760000463575125, 0.0, 0.0, 0.0, 0.0, 0.0, 1.7011965642853703E9, 0.0, 2023-11-28 16:36:04.285
26.0, -1224.0056771980599, -2251.5001811743714, -1236.4595440505072, -2499.4424585867673, -0.01600000075995922, 0.03200000151991844, -0.9760000463575125, 0.0, 0.0, 0.0, 0.0, 0.0, 1.7011965642853703E9, 0.0, 2023-11-28 16:36:04.285
27.0, -1307.715857906267, -2367.309923202265, -1357.4116485174745, -2670.2511693630368, -0.01600000075995922, 0.03200000151991844, -0.9760000463575125, 0.0, 0.0, 0.0, 0.0, 0.0, 1.7011965642860708E9, 0.0, 2023-11-28 16:36:04.286
27.0, -1398.6814445285127, -2505.6974412626587, -1529.6602207766846, -2854.4337623808533, -0.01600000075995922, 0.03200000151991844, -0.9760000463575125, 0.0, 0.0, 0.0, 0.0, 0.0, 1.7011965642860708E9, 0.0, 2023-11-28 16:36:04.286
28.0, -1250.4318102849647, -2295.6534400512464, -1766.3042604229413, -3051.722834793385, -0.01600000075995922, 0.03200000151991844, -0.9760000463575125, 0.0, 0.0, 0.0, 0.0, 0.0, 1.70119656429959E9, 0.0, 2023-11-28 16:36:04.299
28.0, -1252.9525028550997, -2286.1877532633953, -1757.852086523082, -3045.776393863838, -0.01600000075995922, 0.03200000151991844, -0.9760000463575125, 0.0, 0.0, 0.0, 0.0, 0.0, 1.70119656429959E9, 0.0, 2023-11-28 16:36:04.299
29.0, -1396.736696551554, -2498.2438206509687, -1525.1648610299453, -2844.485628498718, -0.01600000075995922, 0.03200000151991844, -0.9760000463575125, 0.0, 0.0, 0.0, 0.0, 0.0, 1.701196564315411E9, 0.0, 2023-11-28 16:36:04.315
29.0, -1299.1477471077815, -2371.7080455501564, -1374.918120210059, -2662.2814425574616, -0.01600000075995922, 0.03200000151991844, -0.9760000463575125, 0.0, 0.0, 0.0, 0.0, 0.0, 1.701196564315411E9, 0.0, 2023-11-28 16:36:04.315
30.0, -1215.7030992964283, -2238.949076923076, -1216.406200488098, -2476.5879299575463, -0.01600000075995922, 0.03200000151991844, -0.9760000463575125, 0.0, 0.0, 0.0, 0.0, 0.0, 1.7011965643160164E9, 0.0, 2023-11-28 16:36:04.316
30.0, -1358.226946707815, -2448.5779492394067, -974.0775129091926, -2279.833663238678, -0.01600000075995922, 0.03200000151991844, -0.9760000463575125, 0.0, 0.0, 0.0, 0.0, 0.0, 1.7011965643160164E9, 0.0, 2023-11-28 16:36:04.316
31.0, -1358.2793053071946, -2448.914540235419, -981.4002370224334, -2282.3019972094335, -0.01600000075995922, 0.03200000151991844, -0.9760000463575125, 0.0, 0.0, 0.0, 0.0, 0.0, 1.7011965643296075E9, 0.0, 2023-11-28 16:36:04.329
31.0, -1223.3586745057255, -2247.513447821606, -1218.6576202614233, -2493.6904924549162, -0.01600000075995922, 0.03200000151991844, -0.9760000463575125, 0.0, 0.0, 0.0, 0.0, 0.0, 1.7011965643296075E9, 0.0, 2023-11-28 16:36:04.329
32.0, -1313.6286397362128, -2371.558449551929, -1378.3363887695596, -2676.3397264909, -0.01600000075995922, 0.03200000151991844, -0.9760000463575125, 0.0, 0.0, 0.0, 0.0, 0.0, 1.701196564345512E9, 0.0, 2023-11-28 16:36:04.345
32.0, -1396.9124718494713, -2505.667522063013, -1555.704884068109, -2859.441488421522, -0.01600000075995922, 0.03200000151991844, -0.9760000463575125, 0.0, 0.0, 0.0, 0.0, 0.0, 1.701196564345512E9, 0.0, 2023-11-28 16:36:04.345
33.0, -1252.7617679573596, -2295.8553946488537, -1780.7888929513283, -3052.04820608953, -0.01600000075995922, 0.03200000151991844, -0.9760000463575125, 0.0, 0.0, 0.0, 0.0, 0.0, 1.7011965643459945E9, 0.0, 2023-11-28 16:36:04.345
33.0, -1256.411910314113, -2288.2372184391133, -1775.0294470195659, -3061.8467439734377, -0.01600000075995922, 0.03200000151991844, -0.9760000463575125, 0.0, 0.0, 0.0, 0.0, 0.0, 1.7011965643459945E9, 0.0, 2023-11-28 16:36:04.345
34.0, -1397.2864618450403, -2499.0778183410875, -1538.3928871732205, -2858.2110613361, -0.01600000075995922, 0.03200000151991844, -0.9760000463575125, 0.0, 0.0, 0.0, 0.0, 0.0, 1.7011965643597472E9, 0.0, 2023-11-28 16:36:04.359
34.0, -1303.882460451685, -2368.832062484231, -1387.424345661886, -2672.35673303809, -0.01600000075995922, 0.03200000151991844, -0.9760000463575125, 0.0, 0.0, 0.0, 0.0, 0.0, 1.7011965643597472E9, 0.0, 2023-11-28 16:36:04.359
35.0, -1219.3644613530487, -2230.91951171821, -1221.9636918222532, -2492.224451672286, -0.01600000075995922, 0.03200000151991844, -0.9760000463575125, 0.0, 0.0, 0.0, 0.0, 0.0, 1.701196564391676E9, 0.0, 2023-11-28 16:36:04.391
35.0, -1360.7887781774625, -2440.118295539636, -976.9834151747636, -2298.854794413317, -0.01600000075995922, 0.03200000151991844, -0.9760000463575125, 0.0, 0.0, 0.0, 0.0, 0.0, 1.701196564391676E9, 0.0, 2023-11-28 16:36:04.391
36.0, -1349.1015908159316, -2437.4367872714065, -977.7837537652813, -2278.8014508509077, -0.01600000075995922, 0.03200000151991844, -0.9760000463575125, 0.0, 0.0, 0.0, 0.0, 0.0, 1.7011965643924763E9, 0.0, 2023-11-28 16:36:04.392
36.0, -1211.6004290450364, -2227.695717956405, -733.0521804648452, -2481.6367948977277, -0.01600000075995922, 0.03200000151991844, -0.9760000463575125, 0.0, 0.0, 0.0, 0.0, 0.0, 1.7011965643924763E9, 0.0, 2023-11-28 16:36:04.392
37.0, -1311.6390129597858, -2361.5504772705026, -881.4140117070638, -2671.5077757481486, -0.01600000075995922, 0.03200000151991844, -0.9760000463575125, 0.0, 0.0, 0.0, 0.0, 0.0, 1.7011965643930857E9, 0.0, 2023-11-28 16:36:04.393
37.0, -1390.9174122205004, -2488.7407348635606, -1037.221983761061, -2844.5641663977876, -0.01600000075995922, 0.03200000151991844, -0.9760000463575125, 0.0, 0.0, 0.0, 0.0, 0.0, 1.7011965643930857E9, 0.0, 2023-11-28 16:36:04.393
38.0, -1242.4022450800985, -2278.012331960257, -1272.8637302191928, -3030.0089756506495, -0.01600000075995922, 0.03200000151991844, -0.9760000463575125, 0.0, 0.0, 0.0, 0.0, 0.0, 1.701196564393858E9, 0.0, 2023-11-28 16:36:04.393
38.0, -1255.420836825855, -2280.6040826295502, -1270.2757194498554, -3048.465381931979, -0.01600000075995922, 0.03200000151991844, -0.9760000463575125, 0.0, 0.0, 0.0, 0.0, 0.0, 1.701196564393858E9, 0.0, 2023-11-28 16:36:04.393
39.0, -1392.405892402865, -2491.9233897258528, -1031.8365278248675, -2846.2658208776265, -0.01600000075995922, 0.03200000151991844, -0.9760000463575125, 0.0, 0.0, 0.0, 0.0, 0.0, 1.7011965644046E9, 0.0, 2023-11-28 16:36:04.404
39.0, -1296.1932261427864, -2368.2710774908774, -888.8003141195513, -2659.2820427929983, -0.01600000075995922, 0.03200000151991844, -0.9760000463575125, 0.0, 0.0, 0.0, 0.0, 0.0, 1.7011965644046E9, 0.0, 2023-11-28 16:36:04.404
40.0, -1216.0621296921745, -2236.357326253783, -723.4555971785448, -2486.7978568365797, -0.01600000075995922, 0.03200000151991844, -0.9760000463575125, 0.0, 0.0, 0.0, 0.0, 0.0, 1.7011965644195776E9, 0.0, 2023-11-28 16:36:04.419
40.0, -1361.3834222704172, -2444.9764255820774, -965.7674552076496, -2284.673093781341, -0.01600000075995922, 0.03200000151991844, -0.9760000463575125, 0.0, 0.0, 0.0, 0.0, 0.0, 1.7011965644195776E9, 0.0, 2023-11-28 16:36:04.419
41.0, -1348.7724796198308, -2445.9413197706454, -977.2040692721494, -2280.835956426803, -0.01600000075995922, 0.03200000151991844, -0.9760000463575125, 0.0, 0.0, 0.0, 0.0, 0.0, 1.701196564435276E9, 0.0, 2023-11-28 16:36:04.435
41.0, -1206.9367738002911, -2226.1586190746166, -1221.7018988253549, -2477.051677552052, -0.01600000075995922, 0.03200000151991844, -0.9760000463575125, 0.0, 0.0, 0.0, 0.0, 0.0, 1.701196564435276E9, 0.0, 2023-11-28 16:36:04.435
42.0, -1301.9564119745046, -2363.308230249677, -1368.5303710857406, -2670.21377036348, -0.01600000075995922, 0.03200000151991844, -0.9760000463575125, 0.0, 0.0, 0.0, 0.0, 0.0, 1.70119656443604E9, 0.0, 2023-11-28 16:36:04.436
42.0, -1383.3067158106714, -2489.8253058507107, -1519.5213519968092, -2849.0520463446155, -0.01600000075995922, 0.03200000151991844, -0.9760000463575125, 0.0, 0.0, 0.0, 0.0, 0.0, 1.70119656443604E9, 0.0, 2023-11-28 16:36:04.436
43.0, -1237.3346806401387, -2285.0732630765997, -1761.6368652782403, -3040.604112225119, -0.01600000075995922, 0.03200000151991844, -0.9760000463575125, 0.0, 0.0, 0.0, 0.0, 0.0, 1.7011965644496353E9, 0.0, 2023-11-28 16:36:04.449
43.0, -1265.9449153011665, -2287.141427752096, -1755.1967575545423, -3054.4903607605956, -0.01600000075995922, 0.03200000151991844, -0.9760000463575125, 0.0, 0.0, 0.0, 0.0, 0.0, 1.7011965644496353E9, 0.0, 2023-11-28 16:36:04.449
44.0, -1394.7956884745508, -2490.2740938453935, -1535.4944647075608, -2849.4858747394755, -0.01600000075995922, 0.03200000151991844, -0.9760000463575125, 0.0, 0.0, 0.0, 0.0, 0.0, 1.7011965644649975E9, 0.0, 2023-11-28 16:36:04.464
44.0, -1301.6235608784482, -2366.4871452120133, -1369.7271390715614, -2660.609707277268, -0.01600000075995922, 0.03200000151991844, -0.9760000463575125, 0.0, 0.0, 0.0, 0.0, 0.0, 1.7011965644649975E9, 0.0, 2023-11-28 16:36:04.464
45.0, -1212.6962197320536, -2234.9623435703106, -1212.5653232336044, -2484.138787968084, -0.01600000075995922, 0.03200000151991844, -0.9760000463575125, 0.0, 0.0, 0.0, 0.0, 0.0, 1.701196564496674E9, 0.0, 2023-11-28 16:36:04.496
45.0, -1354.0083395577967, -2447.6990727498196, -978.053026562091, -2284.456179583911, -0.01600000075995922, 0.03200000151991844, -0.9760000463575125, 0.0, 0.0, 0.0, 0.0, 0.0, 1.701196564496674E9, 0.0, 2023-11-28 16:36:04.496
46.0, -1339.9799748240039, -2433.8689227136783, -977.8660315643065, -2266.8337709927, -0.01600000075995922, 0.03200000151991844, -0.9760000463575125, 0.0, 0.0, 0.0, 0.0, 0.0, 1.7011965644973626E9, 0.0, 2023-11-28 16:36:04.497
46.0, -1196.9213217189535, -2227.1010738634504, -1208.9301404766738, -2478.446660235524, -0.01600000075995922, 0.03200000151991844, -0.9760000463575125, 0.0, 0.0, 0.0, 0.0, 0.0, 1.7011965644973626E9, 0.0, 2023-11-28 16:36:04.497
47.0, -1294.8917409582064, -2364.5910159344785, -1359.1095630973577, -2661.0734548717737, -0.01600000075995922, 0.03200000151991844, -0.9760000463575125, 0.0, 0.0, 0.0, 0.0, 0.0, 1.7011965644980764E9, 0.0, 2023-11-28 16:36:04.498
47.0, -1380.88700053934, -2507.5561715406366, -1510.8223446998745, -2835.6744242031127, -0.01600000075995922, 0.03200000151991844, -0.9760000463575125, 0.0, 0.0, 0.0, 0.0, 0.0, 1.7011965644980764E9, 0.0, 2023-11-28 16:36:04.498
48.0, -1235.7078241594136, -2283.382828296628, -1272.4074624245986, -3028.5504146679305, -0.01600000075995922, 0.03200000151991844, -0.9760000463575125, 0.0, 0.0, 0.0, 0.0, 0.0, 1.7011965644988303E9, 0.0, 2023-11-28 16:36:04.498
48.0, -1240.9324643975124, -2283.7007197928615, -1257.675996499136, -3042.664797100704, -0.01600000075995922, 0.03200000151991844, -0.9760000463575125, 0.0, 0.0, 0.0, 0.0, 0.0, 1.7011965644988303E9, 0.0, 2023-11-28 16:36:04.498
49.0, -1381.4218062330037, -2492.798526315484, -1018.5972819817252, -2843.741388407536, -0.01600000075995922, 0.03200000151991844, -0.9760000463575125, 0.0, 0.0, 0.0, 0.0, 0.0, 1.7011965645096736E9, 0.0, 2023-11-28 16:36:04.509
49.0, -1288.3768352353945, -2359.3102771970443, -878.238836644683, -2651.4993109852076, -0.01600000075995922, 0.03200000151991844, -0.9760000463575125, 0.0, 0.0, 0.0, 0.0, 0.0, 1.7011965645096736E9, 0.0, 2023-11-28 16:36:04.509
50.0, -1213.8668084181845, -2246.413917234633, -733.2316956627183, -2498.1708926018327, -0.01600000075995922, 0.03200000151991844, -0.9760000463575125, 0.0, 0.0, 0.0, 0.0, 0.0, 1.7011965645252979E9, 0.0, 2023-11-28 16:36:04.525
50.0, -1354.5431452514604, -2451.7194652021863, -974.3692251057364, -2300.8519009896554, -0.01600000075995922, 0.03200000151991844, -0.9760000463575125, 0.0, 0.0, 0.0, 0.0, 0.0, 1.7011965645252979E9, 0.0, 2023-11-28 16:36:04.525
51.0, -1338.8243457376957, -2439.5386110465042, -968.7743347720243, -2272.6530553237535, -0.01600000075995922, 0.03200000151991844, -0.9760000463575125, 0.0, 0.0, 0.0, 0.0, 0.0, 1.7011965645261197E9, 0.0, 2023-11-28 16:36:04.526
51.0, -1211.4919719463214, -2234.3938787770458, -1208.8740419773385, -2486.5734628392383, -0.01600000075995922, 0.03200000151991844, -0.9760000463575125, 0.0, 0.0, 0.0, 0.0, 0.0, 1.7011965645261197E9, 0.0, 2023-11-28 16:36:04.526
52.0, -1315.9511176086962, -2374.0118239228614, -1370.6621140604839, -2684.5001881942153, -0.01600000075995922, 0.03200000151991844, -0.9760000463575125, 0.0, 0.0, 0.0, 0.0, 0.0, 1.7011965645396252E9, 0.0, 2023-11-28 16:36:04.539
52.0, -1386.7923025693744, -2490.5171873425134, -1515.3738029459491, -2845.450522687286, -0.01600000075995922, 0.03200000151991844, -0.9760000463575125, 0.0, 0.0, 0.0, 0.0, 0.0, 1.7011965645396252E9, 0.0, 2023-11-28 16:36:04.539
53.0, -1237.8433070341125, -2282.320696709212, -1272.691694821231, -3031.6358321313746, -0.01600000075995922, 0.03200000151991844, -0.9760000463575125, 0.0, 0.0, 0.0, 0.0, 0.0, 1.7011965645552747E9, 0.0, 2023-11-28 16:36:04.555
53.0, -1265.660682904534, -2298.866014113184, -1273.6603289097548, -3063.6493757520802, -0.01600000075995922, 0.03200000151991844, -0.9760000463575125, 0.0, 0.0, 0.0, 0.0, 0.0, 1.7011965645552747E9, 0.0, 2023-11-28 16:36:04.555
54.0, -1387.944191755727, -2498.1353635522537, -1505.6351034613326, -2848.5957785500214, -0.01600000075995922, 0.03200000151991844, -0.9760000463575125, 0.0, 0.0, 0.0, 0.0, 0.0, 1.7011965645561237E9, 0.0, 2023-11-28 16:36:04.556
54.0, -1299.248724406585, -2366.262751214672, -1372.3525488404557, -2653.904066656716, -0.01600000075995922, 0.03200000151991844, -0.9760000463575125, 0.0, 0.0, 0.0, 0.0, 0.0, 1.7011965645561237E9, 0.0, 2023-11-28 16:36:04.556
55.0, -1230.7861158177257, -2242.3823050823994, -1211.9893786404282, -2492.1795728728175, -0.01600000075995922, 0.03200000151991844, -0.9760000463575125, 0.0, 0.0, 0.0, 0.0, 0.0, 1.7011965645695956E9, 0.0, 2023-11-28 16:36:04.569
55.0, -1368.0703633911908, -2454.038203174714, -967.3456929889508, -2297.011023735162, -0.01600000075995922, 0.03200000151991844, -0.9760000463575125, 0.0, 0.0, 0.0, 0.0, 0.0, 1.7011965645695956E9, 0.0, 2023-11-28 16:36:04.569
56.0, -1352.3702633772045, -2441.288884225767, -955.475250529591, -2269.429261561949, -0.01600000075995922, 0.03200000151991844, -0.9760000463575125, 0.0, 0.0, 0.0, 0.0, 0.0, 1.7011965645852983E9, 0.0, 2023-11-28 16:36:04.585
56.0, -1220.385454040952, -2235.8113008602522, -1200.208693780005, -2480.1183955157176, -0.01600000075995922, 0.03200000151991844, -0.9760000463575125, 0.0, 0.0, 0.0, 0.0, 0.0, 1.7011965645852983E9, 0.0, 2023-11-28 16:36:04.585
57.0, -1321.0523411482573, -2383.5597885097377, -1360.7027604784817, -2680.4124775426462, -0.01600000075995922, 0.03200000151991844, -0.9760000463575125, 0.0, 0.0, 0.0, 0.0, 0.0, 1.701196564586054E9, 0.0, 2023-11-28 16:36:04.586
57.0, -1395.697004363872, -2502.447468201164, -1519.1698014009744, -2841.194516537711, -0.01600000075995922, 0.03200000151991844, -0.9760000463575125, 0.0, 0.0, 0.0, 0.0, 0.0, 1.701196564586054E9, 0.0, 2023-11-28 16:36:04.586
58.0, -1248.9246306028217, -2287.9193269428797, -1763.966822950635, -3034.7249894947745, -0.01600000075995922, 0.03200000151991844, -0.9760000463575125, 0.0, 0.0, 0.0, 0.0, 0.0, 1.701196564599642E9, 0.0, 2023-11-28 16:36:04.599
58.0, -1265.2455540094525, -2305.018149540294, -1770.0254608788528, -3063.6231964523904, -0.01600000075995922, 0.03200000151991844, -0.9760000463575125, 0.0, 0.0, 0.0, 0.0, 0.0, 1.701196564599642E9, 0.0, 2023-11-28 16:36:04.599
59.0, -1405.3422063495964, -2510.3087379080243, -1536.590255394578, -2856.0568789616227, -0.01600000075995922, 0.03200000151991844, -0.9760000463575125, 0.0, 0.0, 0.0, 0.0, 0.0, 1.7011965646316943E9, 0.0, 2023-11-28 16:36:04.631
59.0, -1300.2958963941783, -2372.5757023398764, -1379.9557654503733, -2658.6499997004867, -0.01600000075995922, 0.03200000151991844, -0.9760000463575125, 0.0, 0.0, 0.0, 0.0, 0.0, 1.7011965646316943E9, 0.0, 2023-11-28 16:36:04.631
60.0, -1231.3882397105917, -2253.336472052615, -1226.5076702684164, -2500.070761779323, -0.01600000075995922, 0.03200000151991844, -0.9760000463575125, 0.0, 0.0, 0.0, 0.0, 0.0, 1.701196564632408E9, 0.0, 2023-11-28 16:36:04.632
60.0, -1382.4053999213502, -2468.380719504785, -991.2773128054105, -2312.931777846534, -0.01600000075995922, 0.03200000151991844, -0.9760000463575125, 0.0, 0.0, 0.0, 0.0, 0.0, 1.701196564632408E9, 0.0, 2023-11-28 16:36:04.632
61.0, -1350.3245381014422, -2452.882574088406, -979.2759738476016, -2274.167714805808, -0.01600000075995922, 0.03200000151991844, -0.9760000463575125, 0.0, 0.0, 0.0, 0.0, 0.0, 1.7011965646331515E9, 0.0, 2023-11-28 16:36:04.633
61.0, -1223.1268007084727, -2250.9092769813724, -738.6545505984686, -2489.2400115076452, -0.01600000075995922, 0.03200000151991844, -0.9760000463575125, 0.0, 0.0, 0.0, 0.0, 0.0, 1.7011965646331515E9, 0.0, 2023-11-28 16:36:04.633
62.0, -1326.7070698812604, -2391.7052906132303, -889.9896023054607, -2686.732908467762, -0.01600000075995922, 0.03200000151991844, -0.9760000463575125, 0.0, 0.0, 0.0, 0.0, 0.0, 1.701196564633881E9, 0.0, 2023-11-28 16:36:04.633
62.0, -1393.359566891566, -2510.4022354069166, -1035.9840768757276, -2842.86999171786, -0.01600000075995922, 0.03200000151991844, -0.9760000463575125, 0.0, 0.0, 0.0, 0.0, 0.0, 1.701196564633881E9, 0.0, 2023-11-28 16:36:04.633
63.0, -1257.859251596965, -2291.8312622965313, -1267.4520949833095, -3032.6381253194995, -0.01600000075995922, 0.03200000151991844, -0.9760000463575125, 0.0, 0.0, 0.0, 0.0, 0.0, 1.7011965646447E9, 0.0, 2023-11-28 16:36:04.644
63.0, -1279.2215601438656, -2313.616179538425, -1282.5837302040309, -3058.656609311234, -0.01600000075995922, 0.03200000151991844, -0.9760000463575125, 0.0, 0.0, 0.0, 0.0, 0.0, 1.7011965646447E9, 0.0, 2023-11-28 16:36:04.644
64.0, -1399.2611290216446, -2518.3869218123145, -1041.3209141124971, -2856.8646973520517, -0.01600000075995922, 0.03200000151991844, -0.9760000463575125, 0.0, 0.0, 0.0, 0.0, 0.0, 1.7011965646596105E9, 0.0, 2023-11-28 16:36:04.659
64.0, -1308.1833454007283, -2376.9663448878564, -884.5966665693559, -2652.4155864743516, -0.01600000075995922, 0.03200000151991844, -0.9760000463575125, 0.0, 0.0, 0.0, 0.0, 0.0, 1.7011965646596105E9, 0.0, 2023-11-28 16:36:04.659
65.0, -1238.2659157291055, -2259.791539376136, -734.4658626480959, -2500.5120699740946, -0.01600000075995922, 0.03200000151991844, -0.9760000463575125, 0.0, 0.0, 0.0, 0.0, 0.0, 1.7011965646753037E9, 0.0, 2023-11-28 16:36:04.675
65.0, -1385.3898400859907, -2472.285175058525, -505.3203224129975, -2307.5912007098086, -0.01600000075995922, 0.03200000151991844, -0.9760000463575125, 0.0, 0.0, 0.0, 0.0, 0.0, 1.7011965646753037E9, 0.0, 2023-11-28 16:36:04.675
66.0, -1360.856096376665, -2464.50618315069, -480.51356600690633, -2274.960573596414, -0.01600000075995922, 0.03200000151991844, -0.9760000463575125, 0.0, 0.0, 0.0, 0.0, 0.0, 1.7011965646760309E9, 0.0, 2023-11-28 16:36:04.676
66.0, -1226.137420172803, -2256.3096925173886, -245.83484378736466, -2486.5098845399916, -0.01600000075995922, 0.03200000151991844, -0.9760000463575125, 0.0, 0.0, 0.0, 0.0, 0.0, 1.7011965646760309E9, 0.0, 2023-11-28 16:36:04.676
67.0, -1335.275180679746, -2404.25265496457, -422.55259649362415, -2692.5409730989486, -0.01600000075995922, 0.03200000151991844, -0.9760000463575125, 0.0, 0.0, 0.0, 0.0, 0.0, 1.7011965646895688E9, 0.0, 2023-11-28 16:36:04.689
67.0, -1405.3496861495078, -2517.9867525170557, -554.6122038289905, -2837.892184876837, -0.01600000075995922, 0.03200000151991844, -0.9760000463575125, 0.0, 0.0, 0.0, 0.0, 0.0, 1.7011965646895688E9, 0.0, 2023-11-28 16:36:04.689
68.0, -1252.9562427550554, -2298.4247059184127, -777.0334039437585, -3036.9464900684543, -0.01600000075995922, 0.03200000151991844, -0.9760000463575125, 0.0, 0.0, 0.0, 0.0, 0.0, 1.7011965647053268E9, 0.0, 2023-11-28 16:36:04.705
68.0, -1275.4255616888404, -2314.8540864237584, -806.2345427977853, -3066.8432503142394, -0.01600000075995922, 0.03200000151991844, -0.9760000463575125, 0.0, 0.0, 0.0, 0.0, 0.0, 1.7011965647053268E9, 0.0, 2023-11-28 16:36:04.705
69.0, -1407.9189974190667, -2520.2232126905583, -564.8969287071377, -2853.6371636902913, -0.01600000075995922, 0.03200000151991844, -0.9760000463575125, 0.0, 0.0, 0.0, 0.0, 0.0, 1.701196564706029E9, 0.0, 2023-11-28 16:36:04.706
69.0, -1295.2993900533766, -2375.619980903808, -392.94380854442716, -2639.9318004222587, -0.01600000075995922, 0.03200000151991844, -0.9760000463575125, 0.0, 0.0, 0.0, 0.0, 0.0, 1.701196564706029E9, 0.0, 2023-11-28 16:36:04.706
70.0, -1229.9820373272523, -2263.1275301366113, -249.94873373862356, -2486.5098845399916, -0.01600000075995922, 0.03200000151991844, -0.9920000471174717, 0.0, 0.0, 0.0, 0.0, 0.0, 1.7011965647359803E9, 0.0, 2023-11-28 16:36:04.735
70.0, -1376.1822063950822, -2475.228476323653, -488.46833321265876, -2297.613147628028, -0.01600000075995922, 0.03200000151991844, -0.9920000471174717, 0.0, 0.0, 0.0, 0.0, 0.0, 1.7011965647359803E9, 0.0, 2023-11-28 16:36:04.735
71.0, -1356.7571660252288, -2451.6184879033826, -471.5191066134721, -2261.646529754158, -0.01600000075995922, 0.03200000151991844, -0.9920000471174717, 0.0, 0.0, 0.0, 0.0, 0.0, 1.701196564736726E9, 0.0, 2023-11-28 16:36:04.736
71.0, -1220.434072740376, -2246.6719703315757, -231.01736016292125, -2480.477425911464, -0.01600000075995922, 0.03200000151991844, -0.9920000471174717, 0.0, 0.0, 0.0, 0.0, 0.0, 1.701196564736726E9, 0.0, 2023-11-28 16:36:04.736
72.0, -1326.905284578912, -2389.5922471382655, -391.305732363835, -2685.322966184467, -0.01600000075995922, 0.03200000151991844, -0.9920000471174717, 0.0, 0.0, 0.0, 0.0, 0.0, 1.701196564737434E9, 0.0, 2023-11-28 16:36:04.737
72.0, -1383.4600517088547, -2492.7798268157057, -538.2202223232016, -2834.5898532159626, -0.01600000075995922, 0.03200000151991844, -0.9920000471174717, 0.0, 0.0, 0.0, 0.0, 0.0, 1.701196564737434E9, 0.0, 2023-11-28 16:36:04.737
73.0, -1240.1583051066846, -2283.996171889361, -779.5466167139821, -3033.1093527139165, -0.01600000075995922, 0.03200000151991844, -0.9920000471174717, 0.0, 0.0, 0.0, 0.0, 0.0, 1.701196564749659E9, 0.0, 2023-11-28 16:36:04.749
73.0, -1265.0024605123326, -2298.338688219432, -795.0036232308485, -3068.5935234935023, -0.01600000075995922, 0.03200000151991844, -0.9920000471174717, 0.0, 0.0, 0.0, 0.0, 0.0, 1.701196564749659E9, 0.0, 2023-11-28 16:36:04.749
74.0, -1403.2703017741442, -2505.4805270652287, -1034.663892191369, -2853.8129389882088, -0.01600000075995922, 0.03200000151991844, -0.9920000471174717, 0.0, 0.0, 0.0, 0.0, 0.0, 1.7011965647652977E9, 0.0, 2023-11-28 16:36:04.765
74.0, -1288.238458937034, -2356.7297462276183, -871.641653122846, -2642.4450131924823, -0.01600000075995922, 0.03200000151991844, -0.9920000471174717, 0.0, 0.0, 0.0, 0.0, 0.0, 1.7011965647652977E9, 0.0, 2023-11-28 16:36:04.765
75.0, -1221.7093786252663, -2239.577380115632, -725.2881481568329, -2490.062789497897, -0.01600000075995922, 0.03200000151991844, -0.9920000471174717, 0.0, 0.0, 0.0, 0.0, 0.0, 1.7011965647660577E9, 0.0, 2023-11-28 16:36:04.766
75.0, -1368.9268004810438, -2457.609807632398, -493.29654405545443, -2298.8360949135385, -0.01600000075995922, 0.03200000151991844, -0.9920000471174717, 0.0, 0.0, 0.0, 0.0, 0.0, 1.7011965647660577E9, 0.0, 2023-11-28 16:36:04.766
76.0, -1340.7952730143443, -2434.355109707918, -465.1126579893753, -2269.3095847633667, -0.01600000075995922, 0.03200000151991844, -0.9920000471174717, 0.0, 0.0, 0.0, 0.0, 0.0, 1.7011965647796004E9, 0.0, 2023-11-28 16:36:04.779
76.0, -1211.2713178489357, -2230.1790115269832, -229.87295077648014, -2477.751038843766, -0.01600000075995922, 0.03200000151991844, -0.9920000471174717, 0.0, 0.0, 0.0, 0.0, 0.0, 1.7011965647796004E9, 0.0, 2023-11-28 16:36:04.779
77.0, -1308.0374893024564, -2376.6372336917557, -381.8587450757623, -2676.9007114842534, -0.01600000075995922, 0.03200000151991844, -0.9920000471174717, 0.0, 0.0, 0.0, 0.0, 0.0, 1.7011965648117976E9, 0.0, 2023-11-28 16:36:04.811
77.0, -1386.350994374603, -2494.586198494304, -534.3419460691512, -2831.740049449727, -0.01600000075995922, 0.03200000151991844, -0.9920000471174717, 0.0, 0.0, 0.0, 0.0, 0.0, 1.7011965648117976E9, 0.0, 2023-11-28 16:36:04.811
78.0, -1225.2435840833932, -2262.4767875443213, -775.9637925564311, -3027.0058359862305, -0.01600000075995922, 0.03200000151991844, -0.9920000471174717, 0.0, 0.0, 0.0, 0.0, 0.0, 1.7011965648124075E9, 0.0, 2023-11-28 16:36:04.812
78.0, -1256.314672915265, -2290.350261914078, -789.2404373991303, -3061.712107575033, -0.01600000075995922, 0.03200000151991844, -0.9920000471174717, 0.0, 0.0, 0.0, 0.0, 0.0, 1.7011965648124075E9, 0.0, 2023-11-28 16:36:04.812
79.0, -1397.9521640371531, -2499.1750557399355, -1024.2669703145511, -2844.2761941011995, -0.01600000075995922, 0.03200000151991844, -0.9920000471174717, 0.0, 0.0, 0.0, 0.0, 0.0, 1.7011965648131692E9, 0.0, 2023-11-28 16:36:04.813
79.0, -1285.9159810645506, -2353.464813566301, -865.9607450901531, -2640.83311631158, -0.01600000075995922, 0.03200000151991844, -0.9920000471174717, 0.0, 0.0, 0.0, 0.0, 0.0, 1.7011965648131692E9, 0.0, 2023-11-28 16:36:04.813
80.0, -1219.6561735495925, -2232.7445828965865, -710.4220458329655, -2494.644166943617, -0.01600000075995922, 0.03200000151991844, -0.9760000463575125, 0.0, 0.0, 0.0, 0.0, 0.0, 1.7011965648139222E9, 0.0, 2023-11-28 16:36:04.813
80.0, -1374.315996317193, -2451.6110081034712, -481.36626319680363, -2305.7698694313876, -0.01600000075995922, 0.03200000151991844, -0.9760000463575125, 0.0, 0.0, 0.0, 0.0, 0.0, 1.7011965648139222E9, 0.0, 2023-11-28 16:36:04.813
81.0, -1341.0682857111096, -2422.948414843064, -467.02000696677715, -2267.8173646810465, -0.01600000075995922, 0.03200000151991844, -0.9760000463575125, 0.0, 0.0, 0.0, 0.0, 0.0, 1.7011965648246005E9, 0.0, 2023-11-28 16:36:04.824
81.0, -1218.5229838630185, -2222.874986913521, -224.5174140399322, -2483.6077221743762, -0.01600000075995922, 0.03200000151991844, -0.9760000463575125, 0.0, 0.0, 0.0, 0.0, 0.0, 1.7011965648246005E9, 0.0, 2023-11-28 16:36:04.824
82.0, -1333.925076795742, -2374.498010917101, -400.43108825571835, -2698.300419030711, -0.01600000075995922, 0.03200000151991844, -0.9760000463575125, 0.0, 0.0, 0.0, 0.0, 0.0, 1.7011965648396363E9, 0.0, 2023-11-28 16:36:04.839
82.0, -1390.8800132209435, -2486.7024893877096, -542.0910187773407, -2847.758040959947, -0.01600000075995922, 0.03200000151991844, -0.9760000463575125, 0.0, 0.0, 0.0, 0.0, 0.0, 1.7011965648396363E9, 0.0, 2023-11-28 16:36:04.839
83.0, -1251.0900326771662, -2281.030431224499, -786.2073785350658, -3032.933577415999, -0.01600000075995922, 0.03200000151991844, -0.9760000463575125, 0.0, 0.0, 0.0, 0.0, 0.0, 1.7011965648553412E9, 0.0, 2023-11-28 16:36:04.855
83.0, -1286.1553346617147, -2302.55729536945, -799.9515108722262, -3076.570730098989, -0.01600000075995922, 0.03200000151991844, -0.9760000463575125, 0.0, 0.0, 0.0, 0.0, 0.0, 1.7011965648553412E9, 0.0, 2023-11-28 16:36:04.855
84.0, -1415.2566811321303, -2501.3441977142356, -1041.3508333121426, -2864.942881256342, -0.01600000075995922, 0.03200000151991844, -0.9760000463575125, 0.0, 0.0, 0.0, 0.0, 0.0, 1.7011965648559904E9, 0.0, 2023-11-28 16:36:04.855
84.0, -1304.290109546855, -2358.1621279106475, -863.1558201233856, -2646.068976249546, -0.01600000075995922, 0.03200000151991844, -0.9760000463575125, 0.0, 0.0, 0.0, 0.0, 0.0, 1.7011965648559904E9, 0.0, 2023-11-28 16:36:04.855
85.0, -1242.7276163762435, -2254.084452043753, -726.8215071386658, -2500.5382492737845, -0.01600000075995922, 0.03200000151991844, -0.9760000463575125, 0.0, 0.0, 0.0, 0.0, 0.0, 1.7011965648696673E9, 0.0, 2023-11-28 16:36:04.869
85.0, -1390.6070005241781, -2470.946290874388, -496.36326201912016, -2313.6236593383364, -0.01600000075995922, 0.03200000151991844, -0.9760000463575125, 0.0, 0.0, 0.0, 0.0, 0.0, 1.7011965648696673E9, 0.0, 2023-11-28 16:36:04.869
86.0, -1370.3928412636742, -2445.679526773747, -472.28204620443285, -2276.665967976209, -0.01600000075995922, 0.03200000151991844, -0.9760000463575125, 0.0, 0.0, 0.0, 0.0, 0.0, 1.7011965649016771E9, 0.0, 2023-11-28 16:36:04.901
86.0, -1238.3968122275546, -2243.5379341687076, -234.47302772197872, -2479.003905328922, -0.01600000075995922, 0.03200000151991844, -0.9760000463575125, 0.0, 0.0, 0.0, 0.0, 0.0, 1.7011965649016771E9, 0.0, 2023-11-28 16:36:04.901
87.0, -1351.3904095888138, -2403.3027203758247, -394.899776221253, -2699.4410885171965, -0.01600000075995922, 0.03200000151991844, -0.9760000463575125, 0.0, 0.0, 0.0, 0.0, 0.0, 1.7011965649023812E9, 0.0, 2023-11-28 16:36:04.902
87.0, -1425.6872621085495, -2518.3046440132894, -548.2730734040961, -2840.1174253504723, -0.01600000075995922, 0.03200000151991844, -0.9760000463575125, 0.0, 0.0, 0.0, 0.0, 0.0, 1.7011965649023812E9, 0.0, 2023-11-28 16:36:04.902
88.0, -1279.6815678384155, -2300.8481610896997, -769.7218995303847, -3034.5828732964583, -0.01600000075995922, 0.03200000151991844, -0.9760000463575125, 0.0, 0.0, 0.0, 0.0, 0.0, 1.7011965649032452E9, 0.0, 2023-11-28 16:36:04.903
88.0, -1305.2998825348914, -2335.8274453752674, -807.1508182869293, -3084.226305308286, -0.01600000075995922, 0.03200000151991844, -0.9760000463575125, 0.0, 0.0, 0.0, 0.0, 0.0, 1.7011965649032452E9, 0.0, 2023-11-28 16:36:04.903
89.0, -1436.9144417755306, -2532.9837513393722, -564.1265093162656, -2865.571184448898, -0.01600000075995922, 0.03200000151991844, -0.9760000463575125, 0.0, 0.0, 0.0, 0.0, 0.0, 1.7011965649039087E9, 0.0, 2023-11-28 16:36:04.903
89.0, -1329.6765504460782, -2384.487283698749, -385.20221563614905, -2653.421619562432, -0.01600000075995922, 0.03200000151991844, -0.9760000463575125, 0.0, 0.0, 0.0, 0.0, 0.0, 1.7011965649039087E9, 0.0, 2023-11-28 16:36:04.903
90.0, -1273.319998013787, -2275.8057909864, -240.16141555458307, -2510.2806886583567, -0.01600000075995922, 0.03200000151991844, -0.9760000463575125, 0.0, 0.0, 0.0, 0.0, 0.0, 1.7011965649146192E9, 0.0, 2023-11-28 16:36:04.914
90.0, -1423.6377969328314, -2498.1129241525196, -10.709203523118049, -2321.5485073444434, -0.01600000075995922, 0.03200000151991844, -0.9760000463575125, 0.0, 0.0, 0.0, 0.0, 0.0, 1.7011965649146192E9, 0.0, 2023-11-28 16:36:04.914
91.0, -1388.3742802506313, -2462.3183416766115, 10.454890326131135, -2270.020165754948, -0.01600000075995922, 0.03200000151991844, -0.9760000463575125, 0.0, 0.0, 0.0, 0.0, 0.0, 1.7011965649295611E9, 0.0, 2023-11-28 16:36:04.929
91.0, -1249.5379741955549, -2256.6986421127804, -232.23656754847616, -2487.119488232769, -0.01600000075995922, 0.03200000151991844, -0.9760000463575125, 0.0, 0.0, 0.0, 0.0, 0.0, 1.7011965649295611E9, 0.0, 2023-11-28 16:36:04.929
92.0, -1360.5830836798996, -2414.324205545243, -399.3801763681695, -2704.7106075547636, -0.01600000075995922, 0.03200000151991844, -0.9760000463575125, 0.0, 0.0, 0.0, 0.0, 0.0, 1.7011965649452975E9, 0.0, 2023-11-28 16:36:04.945
92.0, -1429.78245256003, -2523.7050595493056, -543.534620160237, -2840.0650667510927, -0.01600000075995922, 0.03200000151991844, -0.9760000463575125, 0.0, 0.0, 0.0, 0.0, 0.0, 1.7011965649452975E9, 0.0, 2023-11-28 16:36:04.945
93.0, -1278.626916050911, -2299.2474839086644, -773.7572515825741, -3024.0288756215014, -0.01600000075995922, 0.03200000151991844, -0.9760000463575125, 0.0, 0.0, 0.0, 0.0, 0.0, 1.7011965649460523E9, 0.0, 2023-11-28 16:36:04.946
93.0, -1304.3424681462348, -2337.1887689591385, -797.8534269970842, -3072.913107942324, -0.01600000075995922, 0.03200000151991844, -0.9760000463575125, 0.0, 0.0, 0.0, 0.0, 0.0, 1.7011965649460523E9, 0.0, 2023-11-28 16:36:04.946
94.0, -1440.478566433303, -2538.279449676629, -1031.0324493343942, -2853.1883756956086, -0.01600000075995922, 0.03200000151991844, -0.9760000463575125, 0.0, 0.0, 0.0, 0.0, 0.0, 1.701196564959617E9, 0.0, 2023-11-28 16:36:04.959
94.0, -1325.3831452969462, -2377.5460293809883, -855.5862626130693, -2634.583743485622, -0.01600000075995922, 0.03200000151991844, -0.9760000463575125, 0.0, 0.0, 0.0, 0.0, 0.0, 1.701196564959617E9, 0.0, 2023-11-28 16:36:04.959
95.0, -1258.5399133889005, -2273.457133814227, -735.6663705338724, -2495.511823733337, -0.01600000075995922, 0.03200000151991844, -0.9760000463575125, 0.0, 0.0, 0.0, 0.0, 0.0, 1.7011965649754217E9, 0.0, 2023-11-28 16:36:04.975
95.0, -1412.3021601671353, -2488.7519545634277, -505.1744663147256, -2322.8724319287576, -0.01600000075995922, 0.03200000151991844, -0.9760000463575125, 0.0, 0.0, 0.0, 0.0, 0.0, 1.7011965649754217E9, 0.0, 2023-11-28 16:36:04.975
96.0, -1379.5817754548043, -2449.419426729437, -472.02773300744593, -2262.832078040112, -0.01600000075995922, 0.03200000151991844, -0.9760000463575125, 0.0, 0.0, 0.0, 0.0, 0.0, 1.701196564976208E9, 0.0, 2023-11-28 16:36:04.976
96.0, -1254.9982281308621, -2256.9866144093685, -714.8762666801922, -2480.982312405482, -0.01600000075995922, 0.03200000151991844, -0.9760000463575125, 0.0, 0.0, 0.0, 0.0, 0.0, 1.701196564976208E9, 0.0, 2023-11-28 16:36:04.976
97.0, -1358.286785107106, -2414.043713048566, -901.2205218723975, -2703.0837510740384, -0.01600000075995922, 0.03200000151991844, -0.9760000463575125, 0.0, 0.0, 0.0, 0.0, 0.0, 1.7011965649896483E9, 0.0, 2023-11-28 16:36:04.989
97.0, -1423.7948727309704, -2513.4913927703165, -1025.0710488050245, -2834.9152245121077, -0.01600000075995922, 0.03200000151991844, -0.9760000463575125, 0.0, 0.0, 0.0, 0.0, 0.0, 1.7011965649896483E9, 0.0, 2023-11-28 16:36:04.989
98.0, -1277.0449383696541, -2296.9212661362253, -780.8331422987394, -3029.8070210530423, -0.01600000075995922, 0.03200000151991844, -0.9760000463575125, 0.0, 0.0, 0.0, 0.0, 0.0, 1.7011965650052776E9, 0.0, 2023-11-28 16:36:05.005
98.0, -1302.5734954671934, -2329.5780725493096, -801.1220995583571, -3085.2846969957463, -0.01600000075995922, 0.03200000151991844, -0.9760000463575125, 0.0, 0.0, 0.0, 0.0, 0.0, 1.7011965650052776E9, 0.0, 2023-11-28 16:36:05.005
99.0, -1437.0154190743342, -2535.3810272109695, -1044.8962584701367, -2869.8309304984286, -0.01600000075995922, 0.03200000151991844, -0.9760000463575125, 0.0, 0.0, 0.0, 0.0, 0.0, 1.7011965650060828E9, 0.0, 2023-11-28 16:36:05.006
99.0, -1318.4082318795845, -2371.5135707524605, -867.8568743676879, -2645.6501074545085, -0.01600000075995922, 0.03200000151991844, -0.9760000463575125, 0.0, 0.0, 0.0, 0.0, 0.0, 1.7011965650060828E9, 0.0, 2023-11-28 16:36:05.006
100.0, -1262.7622604388744, -2272.0733708306216, -733.2840542620979, -2512.1768179358914, -0.01600000075995922, 0.03200000151991844, -0.9760000463575125, 0.0, 0.0, 0.0, 0.0, 0.0, 1.7011965650202816E9, 0.0, 2023-11-28 16:36:05.020
100.0, -1421.038566463627, -2499.2199345394038, -506.8275020951405, -2331.455502327066, -0.01600000075995922, 0.03200000151991844, -0.9760000463575125, 0.0, 0.0, 0.0, 0.0, 0.0, 1.7011965650202816E9, 0.0, 2023-11-28 16:36:05.020
0.0, -1373.4315099776722, -2454.113001173828, -1442.926330954302, -2262.46930774441, -0.01600000075995922, 0.03200000151991844, -0.9760000463575125, 0.0, 0.0, 0.0, 0.0, 0.0, 1.7011965650210197E9, 0.0, 2023-11-28 16:36:05.021
1.0, -1242.1385821332224, -2249.259981100913, -1207.0658003487624, -2480.3353097131476, -0.01600000075995922, 0.03200000151991844, -0.9760000463575125, 0.0, 0.0, 0.0, 0.0, 0.0, 1.7011965650346422E9, 0.0, 2023-11-28 16:36:05.034
1.0, -1356.9647304727696, -2406.750908134971, -1400.463506857399, -2705.780218942091, -0.01600000075995922, 0.03200000151991844, -0.9760000463575125, 0.0, 0.0, 0.0, 0.0, 0.0, 1.7011965650346422E9, 0.0, 2023-11-28 16:36:05.034
2.0, -1415.5764425783418, -2511.576563993003, -1517.1446455749683, -2838.8458593655378, -0.01600000075995922, 0.03200000151991844, -0.9760000463575125, 0.0, 0.0, 0.0, 0.0, 0.0, 1.7011965650503373E9, 0.0, 2023-11-28 16:36:05.050
2.0, -1265.0267698620446, -2292.5792422876693, -1732.9312631683424, -3017.566328498069, -0.01600000075995922, 0.03200000151991844, -0.9760000463575125, 0.0, 0.0, 0.0, 0.0, 0.0, 1.7011965650503373E9, 0.0, 2023-11-28 16:36:05.050
3.0, -1302.530486617703, -2336.448268767912, -1778.9993508225307, -3085.5090909930877, -0.01600000075995922, 0.03200000151991844, -0.9760000463575125, 0.0, 0.0, 0.0, 0.0, 0.0, 1.7011965650510216E9, 0.0, 2023-11-28 16:36:05.051
3.0, -1437.2566426214762, -2536.229984500911, -2016.3895005099475, -2859.770599617623, -0.01600000075995922, 0.03200000151991844, -0.9760000463575125, 0.0, 0.0, 0.0, 0.0, 0.0, 1.7011965650510216E9, 0.0, 2023-11-28 16:36:05.051
4.0, -1307.8112253551371, -2367.504397999961, -1826.9149490548298, -2629.1908077495173, -0.01600000075995922, 0.03200000151991844, -0.9760000463575125, 0.0, 0.0, 0.0, 0.0, 0.0, 1.7011965650647323E9, 0.0, 2023-11-28 16:36:05.064
4.0, -1256.7279318603687, -2265.4500080090947, -1706.0750415865332, -2497.7408041069284, -0.01600000075995922, 0.03200000151991844, -0.9760000463575125, 0.0, 0.0, 0.0, 0.0, 0.0, 1.7011965650647323E9, 0.0, 2023-11-28 16:36:05.064
5.0, -1411.6009289254434, -2495.0761253884993, -1473.8852227875032, -2323.4895154214464, -0.01600000075995922, 0.03200000151991844, -0.9760000463575125, 0.0, 0.0, 0.0, 0.0, 0.0, 1.7011965650803463E9, 0.0, 2023-11-28 16:36:05.080
5.0, -1378.5626527168788, -2453.6567333792336, -1438.8573198025115, -2261.4483150565065, -0.01600000075995922, 0.03200000151991844, -0.9760000463575125, 0.0, 0.0, 0.0, 0.0, 0.0, 1.7011965650803463E9, 0.0, 2023-11-28 16:36:05.080
6.0, -1246.099136186298, -2253.493547850754, -1197.78336865874, -2482.5530703868717, -0.01600000075995922, 0.03200000151991844, -0.9760000463575125, 0.0, 0.0, 0.0, 0.0, 0.0, 1.7011965650810833E9, 0.0, 2023-11-28 16:36:05.081
6.0, -1363.8237069915049, -2414.249407546129, -1389.2961655897088, -2716.558610614389, -0.01600000075995922, 0.03200000151991844, -0.9760000463575125, 0.0, 0.0, 0.0, 0.0, 0.0, 1.7011965650810833E9, 0.0, 2023-11-28 16:36:05.081
7.0, -1413.283883905504, -2514.643281956669, -1504.6795590226538, -2844.2911537010223, -0.01600000075995922, 0.03200000151991844, -0.9760000463575125, 0.0, 0.0, 0.0, 0.0, 0.0, 1.7011965650946338E9, 0.0, 2023-11-28 16:36:05.094
7.0, -1262.2442842950113, -2292.545583188068, -1725.0064151622355, -3025.670691702049, -0.01600000075995922, 0.03200000151991844, -0.9760000463575125, 0.0, 0.0, 0.0, 0.0, 0.0, 1.7011965650946338E9, 0.0, 2023-11-28 16:36:05.094
8.0, -1302.7511407150887, -2333.2917932053097, -1774.0290237814188, -3081.103488845285, -0.01600000075995922, 0.03200000151991844, -0.9760000463575125, 0.0, 0.0, 0.0, 0.0, 0.0, 1.7011965651103053E9, 0.0, 2023-11-28 16:36:05.110
8.0, -1429.769362910185, -2526.483805216383, -1532.6053919917904, -2869.139049006626, -0.01600000075995922, 0.03200000151991844, -0.9760000463575125, 0.0, 0.0, 0.0, 0.0, 0.0, 1.7011965651103053E9, 0.0, 2023-11-28 16:36:05.110
9.0, -1312.9311483944766, -2364.5797962346114, -1336.9562657098286, -2633.6599881965667, -0.01600000075995922, 0.03200000151991844, -0.9760000463575125, 0.0, 0.0, 0.0, 0.0, 0.0, 1.7011965651110103E9, 0.0, 2023-11-28 16:36:05.111
9.0, -1255.759297771845, -2267.4321549856104, -1216.2285552402027, -2499.0909079909325, -0.01600000075995922, 0.03200000151991844, -0.9760000463575125, 0.0, 0.0, 0.0, 0.0, 0.0, 1.7011965651110103E9, 0.0, 2023-11-28 16:36:05.111
10.0, -1406.4361270866357, -2488.557479765732, -982.7634305562824, -2322.950969827827, -0.01600000075995922, 0.03200000151991844, -0.9920000471174717, 0.0, 0.0, 0.0, 0.0, 0.0, 1.7011965651246285E9, 0.0, 2023-11-28 16:36:05.124
10.0, -1368.4237839370035, -2446.5322239636444, -938.4493559813127, -2257.1100311079063, -0.01600000075995922, 0.03200000151991844, -0.9920000471174717, 0.0, 0.0, 0.0, 0.0, 0.0, 1.7011965651246285E9, 0.0, 2023-11-28 16:36:05.124
11.0, -1235.9415679066442, -2243.3920780704357, -701.9642620831728, -2479.6845671208575, -0.01600000075995922, 0.03200000151991844, -0.9920000471174717, 0.0, 0.0, 0.0, 0.0, 0.0, 1.7011965651400392E9, 0.0, 2023-11-28 16:36:05.140
11.0, -1352.050501930993, -2408.534840413835, -900.5379901304841, -2712.631715660915, -0.01600000075995922, 0.03200000151991844, -0.9920000471174717, 0.0, 0.0, 0.0, 0.0, 0.0, 1.7011965651400392E9, 0.0, 2023-11-28 16:36:05.140
12.0, -1407.5693167732097, -2507.645929139573, -1033.663468953222, -2835.8352399012074, -0.01600000075995922, 0.03200000151991844, -0.9920000471174717, 0.0, 0.0, 0.0, 0.0, 0.0, 1.7011965651553695E9, 0.0, 2023-11-28 16:36:05.155
12.0, -1259.499197727535, -2283.5286843948998, -1260.2770969183184, -3020.8462207592092, -0.01600000075995922, 0.03200000151991844, -0.9920000471174717, 0.0, 0.0, 0.0, 0.0, 0.0, 1.7011965651553695E9, 0.0, 2023-11-28 16:36:05.155
13.0, -1295.8285858971067, -2321.350292646792, -1295.4171969019808, -3084.877047900576, -0.01600000075995922, 0.03200000151991844, -0.9920000471174717, 0.0, 0.0, 0.0, 0.0, 0.0, 1.7011965651560671E9, 0.0, 2023-11-28 16:36:05.156
13.0, -1421.459305208642, -2522.2464985665865, -1537.2017290373333, -2866.7567327348515, -0.01600000075995922, 0.03200000151991844, -0.9920000471174717, 0.0, 0.0, 0.0, 0.0, 0.0, 1.7011965651560671E9, 0.0, 2023-11-28 16:36:05.156
14.0, -1314.4682472762652, -2360.3574491846375, -1338.3961271927692, -2636.3863752642646, -0.01600000075995922, 0.03200000151991844, -0.9920000471174717, 0.0, 0.0, 0.0, 0.0, 0.0, 1.7011965651703007E9, 0.0, 2023-11-28 16:36:05.170
14.0, -1251.8847614177503, -2254.664136536885, -1215.645130847115, -2499.3302615880966, -0.01600000075995922, 0.03200000151991844, -0.9920000471174717, 0.0, 0.0, 0.0, 0.0, 0.0, 1.7011965651703007E9, 0.0, 2023-11-28 16:36:05.170
15.0, -1405.34781619953, -2487.1363177825697, -984.9400523304939, -2324.955556204077, -0.01600000075995922, 0.03200000151991844, -0.9920000471174717, 0.0, 0.0, 0.0, 0.0, 0.0, 1.7011965651711235E9, 0.0, 2023-11-28 16:36:05.171
15.0, -1359.0515946480446, -2438.128668763209, -939.096358673647, -2256.982874509413, -0.01600000075995922, 0.03200000151991844, -0.9920000471174717, 0.0, 0.0, 0.0, 0.0, 0.0, 1.7011965651711235E9, 0.0, 2023-11-28 16:36:05.171
16.0, -1228.140136599075, -2241.230415896047, -701.7436079857871, -2482.8934012828395, -0.01600000075995922, 0.03200000151991844, -0.9920000471174717, 0.0, 0.0, 0.0, 0.0, 0.0, 1.7011965651846828E9, 0.0, 2023-11-28 16:36:05.184
16.0, -1340.9766581621952, -2403.070846578572, -885.933680803515, -2701.4045359939337, -0.01600000075995922, 0.03200000151991844, -0.9920000471174717, 0.0, 0.0, 0.0, 0.0, 0.0, 1.7011965651846828E9, 0.0, 2023-11-28 16:36:05.184
17.0, -1399.1657615727745, -2493.8307387032546, -1006.3023608773947, -2826.7659825086594, -0.01600000075995922, 0.03200000151991844, -0.9920000471174717, 0.0, 0.0, 0.0, 0.0, 0.0, 1.7011965652004251E9, 0.0, 2023-11-28 16:36:05.200
17.0, -1247.883068465162, -2273.300058016088, -1240.2686321553774, -3013.239264249336, -0.01600000075995922, 0.03200000151991844, -0.9920000471174717, 0.0, 0.0, 0.0, 0.0, 0.0, 1.7011965652004251E9, 0.0, 2023-11-28 16:36:05.200
18.0, -1290.9592361547984, -2315.2879148186184, -1294.859951808583, -3085.265997495968, -0.01600000075995922, 0.03200000151991844, -0.9920000471174717, 0.0, 0.0, 0.0, 0.0, 0.0, 1.7011965652010016E9, 0.0, 2023-11-28 16:36:05.201
18.0, -1410.1423679427244, -2506.527699052822, -1528.7308556376956, -2858.4092760337517, -0.01600000075995922, 0.03200000151991844, -0.9920000471174717, 0.0, 0.0, 0.0, 0.0, 0.0, 1.7011965652010016E9, 0.0, 2023-11-28 16:36:05.201
19.0, -1299.6769429515116, -2341.160542712081, -1331.6306481729262, -2619.4820274645463, -0.01600000075995922, 0.03200000151991844, -0.9920000471174717, 0.0, 0.0, 0.0, 0.0, 0.0, 1.7011965652146175E9, 0.0, 2023-11-28 16:36:05.214
19.0, -1244.7939111017622, -2251.0401734798215, -1210.629925006535, -2500.1642592782155, -0.01600000075995922, 0.03200000151991844, -0.9920000471174717, 0.0, 0.0, 0.0, 0.0, 0.0, 1.7011965652146175E9, 0.0, 2023-11-28 16:36:05.214
20.0, -1397.0527180978097, -2468.556494802702, -984.1509334398434, -2320.6546712550335, -0.01600000075995922, 0.03200000151991844, -0.9920000471174717, 0.0, 0.0, 0.0, 0.0, 0.0, 1.701196565230284E9, 0.0, 2023-11-28 16:36:05.230
20.0, -1356.4336646790616, -2430.2000808571465, -937.7088557900861, -2254.750154235866, -0.01600000075995922, 0.03200000151991844, -0.9920000471174717, 0.0, 0.0, 0.0, 0.0, 0.0, 1.701196565230284E9, 0.0, 2023-11-28 16:36:05.230
21.0, -1232.6616756455041, -2235.5906467628665, -719.6128499740735, -2481.2515852022916, -0.01600000075995922, 0.03200000151991844, -0.9920000471174717, 0.0, 0.0, 0.0, 0.0, 0.0, 1.701196565231034E9, 0.0, 2023-11-28 16:36:05.231
21.0, -1356.0933337830938, -2404.144197865855, -915.1011605579406, -2716.9288607100025, -0.01600000075995922, 0.03200000151991844, -0.9920000471174717, 0.0, 0.0, 0.0, 0.0, 0.0, 1.701196565231034E9, 0.0, 2023-11-28 16:36:05.231
22.0, -1410.7070928360336, -2504.496933376882, -1030.3087786929682, -2839.747175254859, -0.01600000075995922, 0.03200000151991844, -0.9920000471174717, 0.0, 0.0, 0.0, 0.0, 0.0, 1.7011965652445836E9, 0.0, 2023-11-28 16:36:05.244
22.0, -1253.5116178984754, -2273.8086844100617, -1245.1379818976857, -3013.3439814480953, -0.01600000075995922, 0.03200000151991844, -0.9920000471174717, 0.0, 0.0, 0.0, 0.0, 0.0, 1.7011965652445836E9, 0.0, 2023-11-28 16:36:05.244
23.0, -1291.4042842495255, -2316.802574300673, -1292.9825220308267, -3082.356355330441, -0.01600000075995922, 0.03200000151991844, -0.9920000471174717, 0.0, 0.0, 0.0, 0.0, 0.0, 1.7011965652604268E9, 0.0, 2023-11-28 16:36:05.260
23.0, -1411.8776815221645, -2509.5682377167977, -1518.102059963625, -2856.3485911581665, -0.01600000075995922, 0.03200000151991844, -0.9920000471174717, 0.0, 0.0, 0.0, 0.0, 0.0, 1.7011965652604268E9, 0.0, 2023-11-28 16:36:05.260
24.0, -1298.0276470710523, -2336.4669682676904, -1328.9603596045636, -2613.6290840338916, -0.01600000075995922, 0.03200000151991844, -0.9920000471174717, 0.0, 0.0, 0.0, 0.0, 0.0, 1.7011965652610748E9, 0.0, 2023-11-28 16:36:05.261
24.0, -1241.600036539603, -2243.4182573701255, -1212.7130492818542, -2499.9922238802537, -0.01600000075995922, 0.03200000151991844, -0.9920000471174717, 0.0, 0.0, 0.0, 0.0, 0.0, 1.7011965652610748E9, 0.0, 2023-11-28 16:36:05.261
25.0, -1388.5407057986595, -2471.443697568495, -999.0581746632233, -2314.7792884246446, -0.01600000075995922, 0.03200000151991844, -0.9920000471174717, 0.0, 0.0, 0.0, 0.0, 0.0, 1.7011965652747672E9, 0.0, 2023-11-28 16:36:05.274
25.0, -1342.510017144028, -2413.4154098560102, -936.1567973084748, -2233.8328937836923, -0.01600000075995922, 0.03200000151991844, -0.9920000471174717, 0.0, 0.0, 0.0, 0.0, 0.0, 1.7011965652747672E9, 0.0, 2023-11-28 16:36:05.274
26.0, -1214.01827436639, -2222.0335094234906, -703.3480250667781, -2462.8138784207404, -0.01600000075995922, 0.03200000151991844, -0.9920000471174717, 0.0, 0.0, 0.0, 0.0, 0.0, 1.7011965652903337E9, 0.0, 2023-11-28 16:36:05.290
26.0, -1332.090655867476, -2399.233709224034, -892.2428920287639, -2703.2408268721774, -0.01600000075995922, 0.03200000151991844, -0.9920000471174717, 0.0, 0.0, 0.0, 0.0, 0.0, 1.7011965652903337E9, 0.0, 2023-11-28 16:36:05.290
27.0, -1376.8385588373058, -2473.9307310390286, -1015.910163863562, -2821.799395367503, -0.01600000075995922, 0.03200000151991844, -0.9920000471174717, 0.0, 0.0, 0.0, 0.0, 0.0, 1.7011965652909803E9, 0.0, 2023-11-28 16:36:05.290
27.0, -1241.7047537383623, -2259.4699079799466, -1260.8567814114504, -3011.021503575612, -0.01600000075995922, 0.03200000151991844, -0.9920000471174717, 0.0, 0.0, 0.0, 0.0, 0.0, 1.7011965652909803E9, 0.0, 2023-11-28 16:36:05.290
28.0, -1279.1748113944195, -2304.9545712410472, -1297.2497478802688, -3094.926159081515, -0.01600000075995922, 0.03200000151991844, -0.9920000471174717, 0.0, 0.0, 0.0, 0.0, 0.0, 1.7011965653046925E9, 0.0, 2023-11-28 16:36:05.304
28.0, -1401.5218985448591, -2494.6161176939495, -1528.5849995394237, -2862.5717846844345, -0.01600000075995922, 0.03200000151991844, -0.9920000471174717, 0.0, 0.0, 0.0, 0.0, 0.0, 1.7011965653046925E9, 0.0, 2023-11-28 16:36:05.304
29.0, -1274.5298556494527, -2325.3445057994686, -1334.4243534398265, -2627.01044607535, -0.01600000075995922, 0.03200000151991844, -0.9920000471174717, 0.0, 0.0, 0.0, 0.0, 0.0, 1.7011965653203623E9, 0.0, 2023-11-28 16:36:05.320
29.0, -1229.9577279775403, -2237.4381573409773, -1231.7566198562272, -2518.3626124626026, -0.01600000075995922, 0.03200000151991844, -0.9920000471174717, 0.0, 0.0, 0.0, 0.0, 0.0, 1.7011965653203623E9, 0.0, 2023-11-28 16:36:05.320
30.0, -1379.1946958093904, -2454.7936629657634, -996.5748810926452, -2332.0164873204194, -0.01600000075995922, 0.03200000151991844, -0.9920000471174717, 0.0, 0.0, 0.0, 0.0, 0.0, 1.701196565321071E9, 0.0, 2023-11-28 16:36:05.321
30.0, -1342.1659463481046, -2412.8843440623023, -946.5911181848496, -2245.561220044736, -0.01600000075995922, 0.03200000151991844, -0.9920000471174717, 0.0, 0.0, 0.0, 0.0, 0.0, 1.701196565321071E9, 0.0, 2023-11-28 16:36:05.321
31.0, -1211.351725697983, -2219.486637553666, -708.7185214031488, -2478.6747941328213, -0.01600000075995922, 0.03200000151991844, -0.9920000471174717, 0.0, 0.0, 0.0, 0.0, 0.0, 1.7011965653346212E9, 0.0, 2023-11-28 16:36:05.334
31.0, -1331.5259309741668, -2380.193878549617, -905.7588904686272, -2714.9878526329994, -0.01600000075995922, 0.03200000151991844, -0.9920000471174717, 0.0, 0.0, 0.0, 0.0, 0.0, 1.7011965653346212E9, 0.0, 2023-11-28 16:36:05.334
32.0, -1388.8398977951147, -2468.089007308241, -1014.1000522850081, -2821.7358170682564, -0.01600000075995922, 0.03200000151991844, -0.9920000471174717, 0.0, 0.0, 0.0, 0.0, 0.0, 1.7011965653500504E9, 0.0, 2023-11-28 16:36:05.350
32.0, -1225.4249692312442, -2238.15621813247, -1243.4064082182012, -3008.328775607515, -0.01600000075995922, 0.03200000151991844, -0.9920000471174717, 0.0, 0.0, 0.0, 0.0, 0.0, 1.7011965653500504E9, 0.0, 2023-11-28 16:36:05.350
33.0, -1273.2732492643408, -2293.9293461716734, -1300.4847613419406, -3084.514277604874, -0.01600000075995922, 0.03200000151991844, -0.9920000471174717, 0.0, 0.0, 0.0, 0.0, 0.0, 1.7011965653652885E9, 0.0, 2023-11-28 16:36:05.365
33.0, -1399.1882009725086, -2484.5183878135867, -1534.6211980679072, -2851.251107518561, -0.01600000075995922, 0.03200000151991844, -0.9920000471174717, 0.0, 0.0, 0.0, 0.0, 0.0, 1.7011965653652885E9, 0.0, 2023-11-28 16:36:05.365
34.0, -1261.5898018027656, -2307.13867281517, -1330.8901479816996, -3096.0630886680447, -0.01600000075995922, 0.03200000151991844, -0.9920000471174717, 0.0, 0.0, 0.0, 0.0, 0.0, 1.7011965653659904E9, 0.0, 2023-11-28 16:36:05.365
34.0, -1226.5282397181727, -2224.696318191942, -1228.68242209265, -2993.5748702823184, -0.01600000075995922, 0.03200000151991844, -0.9920000471174717, 0.0, 0.0, 0.0, 0.0, 0.0, 1.7011965653659904E9, 0.0, 2023-11-28 16:36:05.365
35.0, -1379.9576354003511, -2459.1917853136547, -989.8281015725806, -2804.580895971507, -0.01600000075995922, 0.03200000151991844, -0.9920000471174717, 0.0, 0.0, 0.0, 0.0, 0.0, 1.701196565380376E9, 0.0, 2023-11-28 16:36:05.380
35.0, -1326.6079625324346, -2406.6125318366103, -937.9706487869844, -2727.3968406859785, -0.01600000075995922, 0.03200000151991844, -0.9920000471174717, 0.0, 0.0, 0.0, 0.0, 0.0, 1.701196565380376E9, 0.0, 2023-11-28 16:36:05.380
36.0, -1205.4127645683475, -2217.8373416732065, -712.5107799582183, -2958.883558293339, -0.01600000075995922, 0.03200000151991844, -0.9920000471174717, 0.0, 0.0, 0.0, 0.0, 0.0, 1.7011965653809924E9, 0.0, 2023-11-28 16:36:05.380
36.0, -1332.8947343579493, -2387.2510697660036, -912.7375437859446, -2718.0246513970196, -0.01600000075995922, 0.03200000151991844, -0.9920000471174717, 0.0, 0.0, 0.0, 0.0, 0.0, 1.7011965653809924E9, 0.0, 2023-11-28 16:36:05.380
37.0, -1378.0315869231708, -2473.7474759412, -1028.1022377191111, -2827.6298993984237, -0.01600000075995922, 0.03200000151991844, -0.9920000471174717, 0.0, 0.0, 0.0, 0.0, 0.0, 1.7011965653946087E9, 0.0, 2023-11-28 16:36:05.394
37.0, -1233.592910734471, -2258.9425820861943, -1256.8363889590837, -3010.7372711789794, -0.01600000075995922, 0.03200000151991844, -0.9920000471174717, 0.0, 0.0, 0.0, 0.0, 0.0, 1.7011965653946087E9, 0.0, 2023-11-28 16:36:05.394
38.0, -1287.41755089676, -2321.8813584404998, -1327.135288426187, -3094.7840428831987, -0.01600000075995922, 0.03200000151991844, -0.9920000471174717, 0.0, 0.0, 0.0, 0.0, 0.0, 1.7011965654102912E9, 0.0, 2023-11-28 16:36:05.410
38.0, -1398.702013978269, -2506.8343708491884, -1549.614456990268, -2872.5722771659493, -0.01600000075995922, 0.03200000151991844, -0.9920000471174717, 0.0, 0.0, 0.0, 0.0, 0.0, 1.7011965654102912E9, 0.0, 2023-11-28 16:36:05.410
39.0, -1284.3246536334045, -2346.676895146724, -1344.3986666216515, -3113.090853166301, -0.01600000075995922, 0.03200000151991844, -0.9920000471174717, 0.0, 0.0, 0.0, 0.0, 0.0, 1.7011965654109824E9, 0.0, 2023-11-28 16:36:05.410
39.0, -1244.277804907877, -2268.4942865730263, -1248.5525105572306, -3012.2893296605907, -0.01600000075995922, 0.03200000151991844, -0.9920000471174717, 0.0, 0.0, 0.0, 0.0, 0.0, 1.7011965654109824E9, 0.0, 2023-11-28 16:36:05.410
40.0, -1385.3917100359686, -2481.642404747661, -1019.0815990259871, -2824.7127774329856, -0.01600000075995922, 0.03200000151991844, -0.9760000463575125, 0.0, 0.0, 0.0, 0.0, 0.0, 1.7011965654246302E9, 0.0, 2023-11-28 16:36:05.424
40.0, -1344.1667928243987, -2435.8660292900167, -962.5530111957341, -2741.645859517157, -0.01600000075995922, 0.03200000151991844, -0.9760000463575125, 0.0, 0.0, 0.0, 0.0, 0.0, 1.7011965654246302E9, 0.0, 2023-11-28 16:36:05.424
41.0, -1221.47189497808, -2241.155617896933, -732.3509492231533, -2969.8863439629786, -0.01600000075995922, 0.03200000151991844, -0.9760000463575125, 0.0, 0.0, 0.0, 0.0, 0.0, 1.7011965654404104E9, 0.0, 2023-11-28 16:36:05.440
41.0, -1345.8721872041933, -2416.134317123797, -920.5875937929377, -3210.971514806617, -0.01600000075995922, 0.03200000151991844, -0.9760000463575125, 0.0, 0.0, 0.0, 0.0, 0.0, 1.7011965654404104E9, 0.0, 2023-11-28 16:36:05.440
42.0, -1389.7112944847904, -2505.2262138682418, -1021.0113874031231, -3316.2683980590664, -0.01600000075995922, 0.03200000151991844, -0.9760000463575125, 0.0, 0.0, 0.0, 0.0, 0.0, 1.7011965654410496E9, 0.0, 2023-11-28 16:36:05.441
42.0, -1251.8137033185922, -2285.469692471903, -1252.599082309287, -3500.2396867293864, -0.01600000075995922, 0.03200000151991844, -0.9760000463575125, 0.0, 0.0, 0.0, 0.0, 0.0, 1.7011965654410496E9, 0.0, 2023-11-28 16:36:05.441
43.0, -1298.7980664619245, -2347.5632514362223, -1314.7375200730748, -3588.1235957881436, -0.01600000075995922, 0.03200000151991844, -0.9760000463575125, 0.0, 0.0, 0.0, 0.0, 0.0, 1.70119656545469E9, 0.0, 2023-11-28 16:36:05.454
43.0, -1416.612394866068, -2531.192339260597, -1541.0800052913837, -3353.4504834185354, -0.01600000075995922, 0.03200000151991844, -0.9760000463575125, 0.0, 0.0, 0.0, 0.0, 0.0, 1.70119656545469E9, 0.0, 2023-11-28 16:36:05.454
44.0, -1297.9004904725589, -2359.702966692392, -1334.7497247359715, -3108.8460667165928, -0.01600000075995922, 0.03200000151991844, -0.9760000463575125, 0.0, 0.0, 0.0, 0.0, 0.0, 1.701196565470322E9, 0.0, 2023-11-28 16:36:05.470
44.0, -1258.1752731432207, -2281.172547422815, -1236.9849999942817, -3001.1369479927234, -0.01600000075995922, 0.03200000151991844, -0.9760000463575125, 0.0, 0.0, 0.0, 0.0, 0.0, 1.701196565470322E9, 0.0, 2023-11-28 16:36:05.470
45.0, -1393.866323335562, -2496.710461669136, -1478.5638376320712, -2815.987590836361, -0.01600000075995922, 0.03200000151991844, -0.9760000463575125, 0.0, 0.0, 0.0, 0.0, 0.0, 1.7011965654710867E9, 0.0, 2023-11-28 16:36:05.471
45.0, -1346.4406519974582, -2433.9063217132352, -1429.5337492129765, -2725.5268907081336, -0.01600000075995922, 0.03200000151991844, -0.9760000463575125, 0.0, 0.0, 0.0, 0.0, 0.0, 1.7011965654710867E9, 0.0, 2023-11-28 16:36:05.471
46.0, -1229.9053693781607, -2254.940889133606, -1208.5243613314815, -2965.3909842162393, -0.01600000075995922, 0.03200000151991844, -0.9760000463575125, 0.0, 0.0, 0.0, 0.0, 0.0, 1.7011965655010247E9, 0.0, 2023-11-28 16:36:05.501
46.0, -1362.4773430074565, -2433.9175414131023, -1399.6631682668813, -2725.788683705032, -0.01600000075995922, 0.03200000151991844, -0.9760000463575125, 0.0, 0.0, 0.0, 0.0, 0.0, 1.7011965655010247E9, 0.0, 2023-11-28 16:36:05.501
47.0, -1402.3259770353325, -2501.871523607988, -1499.1706863879226, -2829.5858670752496, -0.01600000075995922, 0.03200000151991844, -0.9760000463575125, 0.0, 0.0, 0.0, 0.0, 0.0, 1.7011965655017292E9, 0.0, 2023-11-28 16:36:05.501
47.0, -1250.7216525315307, -2284.12706838781, -1728.3611054224893, -3022.2150241429918, -0.01600000075995922, 0.03200000151991844, -0.9760000463575125, 0.0, 0.0, 0.0, 0.0, 0.0, 1.7011965655017292E9, 0.0, 2023-11-28 16:36:05.501
48.0, -1295.2040226045065, -2343.7747327811085, -1801.670624353923, -3115.776101334486, -0.01600000075995922, 0.03200000151991844, -0.9760000463575125, 0.0, 0.0, 0.0, 0.0, 0.0, 1.701196565502443E9, 0.0, 2023-11-28 16:36:05.502
48.0, -1410.3592821401544, -2532.0861753500067, -2024.3255682159215, -2874.1991336466745, -0.01600000075995922, 0.03200000151991844, -0.9760000463575125, 0.0, 0.0, 0.0, 0.0, 0.0, 1.701196565502443E9, 0.0, 2023-11-28 16:36:05.502
49.0, -1295.7238686983474, -2364.5162179353647, -1820.9161495259032, -2630.144482238218, -0.01600000075995922, 0.03200000151991844, -0.9760000463575125, 0.0, 0.0, 0.0, 0.0, 0.0, 1.7011965655146656E9, 0.0, 2023-11-28 16:36:05.514
49.0, -1260.1686398196034, -2282.619888705667, -1733.200535965152, -2530.176956422627, -0.01600000075995922, 0.03200000151991844, -0.9760000463575125, 0.0, 0.0, 0.0, 0.0, 0.0, 1.7011965655146656E9, 0.0, 2023-11-28 16:36:05.514
50.0, -1403.548924320843, -2506.4716005534865, -1495.8159961276688, -2340.124590424355, -0.01600000075995922, 0.03200000151991844, -0.9760000463575125, 0.0, 0.0, 0.0, 0.0, 0.0, 1.7011965655303264E9, 0.0, 2023-11-28 16:36:05.530
50.0, -1351.784969034139, -2440.507245135028, -1428.6286934236996, -2240.1121858092956, -0.01600000075995922, 0.03200000151991844, -0.9760000463575125, 0.0, 0.0, 0.0, 0.0, 0.0, 1.7011965655303264E9, 0.0, 2023-11-28 16:36:05.530
51.0, -1237.3739495896734, -2256.5976648139767, -1206.8264467515983, -2480.4699461115524, -0.01600000075995922, 0.03200000151991844, -0.9760000463575125, 0.0, 0.0, 0.0, 0.0, 0.0, 1.7011965655310383E9, 0.0, 2023-11-28 16:36:05.531
51.0, -1363.797527691815, -2434.751539103221, -1411.2942571290769, -2244.570146556478, -0.01600000075995922, 0.03200000151991844, -0.9760000463575125, 0.0, 0.0, 0.0, 0.0, 0.0, 1.7011965655310383E9, 0.0, 2023-11-28 16:36:05.531
52.0, -1394.5357654276304, -2501.160942616407, -1497.405453608837, -2327.9960948680528, -0.03200000151991844, 0.03200000151991844, -0.9760000463575125, 0.0, 0.0, 0.0, 0.0, 0.0, 1.701196565544688E9, 0.0, 2023-11-28 16:36:05.544
52.0, -1251.8922412176616, -2278.8051907508634, -1728.0357341263443, -2518.310253863223, -0.03200000151991844, 0.03200000151991844, -0.9760000463575125, 0.0, 0.0, 0.0, 0.0, 0.0, 1.701196565544688E9, 0.0, 2023-11-28 16:36:05.544
53.0, -1302.9605751126073, -2347.1144634415396, -1795.9448375217617, -2607.484428406693, -0.03200000151991844, 0.03200000151991844, -0.9760000463575125, 0.0, 0.0, 0.0, 0.0, 0.0, 1.7011965655604365E9, 0.0, 2023-11-28 16:36:05.560
53.0, -1415.1800131830387, -2529.838495476637, -2012.4439060566947, -2849.852384935133, -0.03200000151991844, 0.03200000151991844, -0.9760000463575125, 0.0, 0.0, 0.0, 0.0, 0.0, 1.7011965655604365E9, 0.0, 2023-11-28 16:36:05.560
54.0, -1294.1979895164259, -2351.4228281904943, -1806.203383100219, -3089.798756242264, -0.03200000151991844, 0.03200000151991844, -0.9760000463575125, 0.0, 0.0, 0.0, 0.0, 0.0, 1.7011965655610554E9, 0.0, 2023-11-28 16:36:05.561
54.0, -1254.7869237833656, -2281.161327722948, -1716.0493547683582, -3001.7615112853236, -0.03200000151991844, 0.03200000151991844, -0.9760000463575125, 0.0, 0.0, 0.0, 0.0, 0.0, 1.7011965655610554E9, 0.0, 2023-11-28 16:36:05.561
55.0, -1402.7224064306356, -2501.7294074096717, -1485.3779353513382, -2819.2600032975897, -0.03200000151991844, 0.03200000151991844, -0.9760000463575125, 0.0, 0.0, 0.0, 0.0, 0.0, 1.7011965655749447E9, 0.0, 2023-11-28 16:36:05.574
55.0, -1345.0868082134984, -2436.187660686206, -1409.5851228493266, -2722.759364740923, -0.03200000151991844, 0.03200000151991844, -0.9760000463575125, 0.0, 0.0, 0.0, 0.0, 0.0, 1.7011965655749447E9, 0.0, 2023-11-28 16:36:05.574
56.0, -1225.7391208275221, -2249.6638902961276, -1193.6096403081901, -2963.8090065349825, -0.03200000151991844, 0.03200000151991844, -0.9760000463575125, 0.0, 0.0, 0.0, 0.0, 0.0, 1.7011965655903437E9, 0.0, 2023-11-28 16:36:05.590
56.0, -1357.7089705639519, -2427.7429665862583, -1399.715526866261, -2732.3522081272677, -0.03200000151991844, 0.03200000151991844, -0.9760000463575125, 0.0, 0.0, 0.0, 0.0, 0.0, 1.7011965655903437E9, 0.0, 2023-11-28 16:36:05.590
57.0, -1386.1135107274167, -2494.9190495903604, -1490.4641992910765, -2823.2317770505324, -0.03200000151991844, 0.03200000151991844, -0.9760000463575125, 0.0, 0.0, 0.0, 0.0, 0.0, 1.701196565591014E9, 0.0, 2023-11-28 16:36:05.591
57.0, -1247.7671315665357, -2279.822443538811, -1716.883352458477, -3017.906659394037, -0.03200000151991844, 0.03200000151991844, -0.9760000463575125, 0.0, 0.0, 0.0, 0.0, 0.0, 1.701196565591014E9, 0.0, 2023-11-28 16:36:05.591
58.0, -1301.7899864264764, -2345.4726473609917, -1802.261528546922, -3119.0185945960693, -0.03200000151991844, 0.03200000151991844, -0.9760000463575125, 0.0, 0.0, 0.0, 0.0, 0.0, 1.7011965656046607E9, 0.0, 2023-11-28 16:36:05.604
58.0, -1414.2562578939833, -2519.669707497116, -2016.2212050119415, -3357.747628467623, -0.03200000151991844, 0.03200000151991844, -0.9760000463575125, 0.0, 0.0, 0.0, 0.0, 0.0, 1.7011965656046607E9, 0.0, 2023-11-28 16:36:05.604
59.0, -1288.1804904877208, -2343.6326165827923, -1813.5186274135485, -3593.49783202447, -0.03200000151991844, 0.03200000151991844, -0.9760000463575125, 0.0, 0.0, 0.0, 0.0, 0.0, 1.7011965656203086E9, 0.0, 2023-11-28 16:36:05.620
59.0, -1257.000944557134, -2275.5626974892803, -1730.8518787929788, -3511.3247501980513, -0.03200000151991844, 0.03200000151991844, -0.9760000463575125, 0.0, 0.0, 0.0, 0.0, 0.0, 1.7011965656203086E9, 0.0, 2023-11-28 16:36:05.620
60.0, -1396.360836606007, -2495.685729081277, -1496.0029911254533, -3320.049436914269, -0.03200000151991844, 0.03200000151991844, -0.9760000463575125, 0.0, 0.0, 0.0, 0.0, 0.0, 1.7011965656210403E9, 0.0, 2023-11-28 16:36:05.621
60.0, -1342.7082318416797, -2430.5366718531586, -1420.169039723929, -3205.4065436725505, -0.03200000151991844, 0.03200000151991844, -0.9760000463575125, 0.0, 0.0, 0.0, 0.0, 0.0, 1.7011965656210403E9, 0.0, 2023-11-28 16:36:05.621
61.0, -1236.2183205033652, -2251.3206659764983, -1201.3998519158922, -2973.005420526024, -0.03200000151991844, 0.03200000151991844, -0.9760000463575125, 0.0, 0.0, 0.0, 0.0, 0.0, 1.7011965656346593E9, 0.0, 2023-11-28 16:36:05.634
