Sample Index, EXG Channel 0, EXG Channel 1, EXG Channel 2, EXG Channel 3, Accel Channel 0, Accel Channel 1, Accel Channel 2, Other, Other, Other, Other, Other, Timestamp, Other, Timestamp (Formatted)
19.0, -52.74380907509476, -70.28393986728042, -189.2800766574219, -209.36707931943238, 0.0, 0.0, 0.0, 0.0, 0.0, 0.0, 0.0, 0.0, 1.7011970553341053E9, 0.0, 2023-11-28 16:44:15.334
19.0, -171.71563651552424, 136.2856942852959, -188.41615976765752, -441.0856707240455, 0.0, 0.0, 0.0, 0.0, 0.0, 0.0, 0.0, 0.0, 1.7011970553341053E9, 0.0, 2023-11-28 16:44:15.334
0.0, -1183.1360504822806, -1977.8423516666517, -1352.7797824223526, -2093.971855140757, 0.0, 0.0, 0.0, 0.0, 0.0, 0.0, 0.0, 0.0, 1.701197055354718E9, 0.0, 2023-11-28 16:44:15.354
1.0, -1175.7796672694385, -1943.768123170361, -1259.678712925408, -2006.4656759775244, 0.0, 0.01600000075995922, 0.0, 0.0, 0.0, 0.0, 0.0, 0.0, 1.701197055368094E9, 0.0, 2023-11-28 16:44:15.368
1.0, -1244.9790361495689, -2035.2909548860043, -1485.6546879480593, -2230.9008122184314, 0.0, 0.01600000075995922, 0.0, 0.0, 0.0, 0.0, 0.0, 0.0, 1.701197055368094E9, 0.0, 2023-11-28 16:44:15.368
2.0, -1196.2107407273725, -2009.3023900939152, -1425.090748065617, -2172.711708807852, -0.01600000075995922, 0.01600000075995922, 0.0, 0.0, 0.0, 0.0, 0.0, 0.0, 1.7011970553848884E9, 0.0, 2023-11-28 16:44:15.384
2.0, -1148.0744883976877, -1934.721305177547, -1236.270679102745, -1980.7351642823778, -0.01600000075995922, 0.01600000075995922, 0.0, 0.0, 0.0, 0.0, 0.0, 0.0, 1.7011970553848884E9, 0.0, 2023-11-28 16:44:15.384
3.0, -1208.735665678978, -2002.3386963764206, -1396.9667003988288, -2147.400065907743, -0.01600000075995922, 0.01600000075995922, 0.0, 0.0, 0.0, 0.0, 0.0, 0.0, 1.7011970553856227E9, 0.0, 2023-11-28 16:44:15.385
3.0, -1216.0883089918643, -2033.450924107805, -1480.8302170052193, -2235.3400734658353, -0.01600000075995922, 0.01600000075995922, 0.0, 0.0, 0.0, 0.0, 0.0, 0.0, 1.7011970553856227E9, 0.0, 2023-11-28 16:44:15.385
4.0, -1161.3399135405198, -1956.046214724891, -1269.2640765118413, -2015.5311934701167, -0.01600000075995922, 0.01600000075995922, 0.0, 0.0, 0.0, 0.0, 0.0, 0.0, 1.7011970553979995E9, 0.0, 2023-11-28 16:44:15.397
4.0, -1180.4807215137407, -1962.2656683512032, -1310.7395670204423, -2058.5437828605063, -0.01600000075995922, 0.01600000075995922, 0.0, 0.0, 0.0, 0.0, 0.0, 0.0, 1.7011970553979995E9, 0.0, 2023-11-28 16:44:15.397
5.0, -1221.0922951325774, -2041.0765801174566, -1500.2589972750284, -2251.3805043757893, -0.01600000075995922, 0.01600000075995922, 0.0, 0.0, 0.0, 0.0, 0.0, 0.0, 1.7011970554136517E9, 0.0, 2023-11-28 16:44:15.413
5.0, -1156.608940096572, -1984.0805047927424, -1335.033957132604, -2083.7619282617234, -0.01600000075995922, 0.01600000075995922, 0.0, 0.0, 0.0, 0.0, 0.0, 0.0, 1.7011970554136517E9, 0.0, 2023-11-28 16:44:15.413
6.0, -1152.1734187491238, -1945.5931943487376, -1262.2068852954544, -1999.6590580581687, -0.01600000075995922, 0.01600000075995922, 0.0, 0.0, 0.0, 0.0, 0.0, 0.0, 1.7011970554143207E9, 0.0, 2023-11-28 16:44:15.414
6.0, -1216.2266852902249, -2031.640812529251, -1468.170655655209, -2214.5200504125096, -0.01600000075995922, 0.01600000075995922, 0.0, 0.0, 0.0, 0.0, 0.0, 0.0, 1.7011970554143207E9, 0.0, 2023-11-28 16:44:15.414
7.0, -1185.2229146575555, -2015.0618360256776, -1409.4804056505673, -2160.508415252436, -0.01600000075995922, 0.01600000075995922, 0.0, 0.0, 0.0, 0.0, 0.0, 0.0, 1.7011970554280624E9, 0.0, 2023-11-28 16:44:15.428
7.0, -1138.567662710324, -1938.3602278344333, -1234.5989438225515, -1973.6592735662125, -0.01600000075995922, 0.01600000075995922, 0.0, 0.0, 0.0, 0.0, 0.0, 0.0, 1.7011970554280624E9, 0.0, 2023-11-28 16:44:15.428
8.0, -1204.1916872328147, -2002.4396736752242, -1405.4525333982892, -2148.2752024973743, -0.01600000075995922, 0.01600000075995922, 0.0, 0.0, 0.0, 0.0, 0.0, 0.0, 1.7011970554436088E9, 0.0, 2023-11-28 16:44:15.443
8.0, -1206.2336726086214, -2046.1890233568847, -1476.7911250530742, -2231.413178512361, -0.01600000075995922, 0.01600000075995922, 0.0, 0.0, 0.0, 0.0, 0.0, 0.0, 1.7011970554436088E9, 0.0, 2023-11-28 16:44:15.443
9.0, -1135.9310332415625, -1962.2394890515134, -1262.188185795676, -2007.6213050638326, -0.01600000075995922, 0.01600000075995922, 0.0, 0.0, 0.0, 0.0, 0.0, 0.0, 1.7011970554443629E9, 0.0, 2023-11-28 16:44:15.444
9.0, -1181.5578127009794, -1973.7434213152155, -1313.697827885393, -2060.0247832429595, -0.01600000075995922, 0.01600000075995922, 0.0, 0.0, 0.0, 0.0, 0.0, 0.0, 1.7011970554443629E9, 0.0, 2023-11-28 16:44:15.444
10.0, -1214.5325106102973, -2055.318119148724, -1492.7043993645348, -2249.779827194754, -0.01600000075995922, 0.01600000075995922, -0.9760000463575125, 0.0, 0.0, 0.0, 0.0, 0.0, 1.7011970554579391E9, 0.0, 2023-11-28 16:44:15.457
10.0, -1143.6427069501951, -1991.6799815027043, -1335.191032930743, -2080.893424995709, -0.01600000075995922, 0.01600000075995922, -0.9760000463575125, 0.0, 0.0, 0.0, 0.0, 0.0, 1.7011970554579391E9, 0.0, 2023-11-28 16:44:15.457
11.0, -1146.1110409209505, -1945.5857145488262, -1246.6750807794742, -1995.4778499077074, -0.01600000075995922, 0.01600000075995922, -0.9760000463575125, 0.0, 0.0, 0.0, 0.0, 0.0, 1.7011970554900703E9, 0.0, 2023-11-28 16:44:15.490
11.0, -1211.809863442555, -2029.6437059529126, -1461.9661616287194, -2217.3399349791, -0.01600000075995922, 0.01600000075995922, -0.9760000463575125, 0.0, 0.0, 0.0, 0.0, 0.0, 1.7011970554900703E9, 0.0, 2023-11-28 16:44:15.490
12.0, -1170.8504791278392, -2020.5183500610292, -1417.0873621604405, -2160.31394045474, -0.01600000075995922, 0.01600000075995922, -0.9760000463575125, 0.0, 0.0, 0.0, 0.0, 0.0, 1.7011970554908657E9, 0.0, 2023-11-28 16:44:15.490
12.0, -1132.6174818808213, -1939.4634983213618, -1237.8227375843562, -1973.9846448623575, -0.01600000075995922, 0.01600000075995922, -0.9760000463575125, 0.0, 0.0, 0.0, 0.0, 0.0, 1.7011970554908657E9, 0.0, 2023-11-28 16:44:15.490
13.0, -1201.6859542625025, -2009.5155643913895, -1399.9361809636466, -2141.5546022769995, -0.01600000075995922, 0.01600000075995922, -0.9760000463575125, 0.0, 0.0, 0.0, 0.0, 0.0, 1.701197055491433E9, 0.0, 2023-11-28 16:44:15.491
13.0, -1204.4310408299789, -2057.173109526746, -1466.4016829761676, -2229.7900619315915, -0.01600000075995922, 0.01600000075995922, -0.9760000463575125, 0.0, 0.0, 0.0, 0.0, 0.0, 1.701197055491433E9, 0.0, 2023-11-28 16:44:15.491
14.0, -1141.1519335797057, -1970.5570265529677, -1249.427647146862, -1996.2931480980478, -0.01600000075995922, 0.01600000075995922, -0.9760000463575125, 0.0, 0.0, 0.0, 0.0, 0.0, 1.7011970554922175E9, 0.0, 2023-11-28 16:44:15.492
14.0, -1168.9618296502158, -1980.8791504306719, -1295.1628837049939, -2052.286930234637, -0.01600000075995922, 0.01600000075995922, -0.9760000463575125, 0.0, 0.0, 0.0, 0.0, 0.0, 1.7011970554922175E9, 0.0, 2023-11-28 16:44:15.492
15.0, -1212.9617526289076, -2067.4092157054693, -1489.0392974079587, -2250.273493988905, -0.01600000075995922, 0.01600000075995922, -0.9760000463575125, 0.0, 0.0, 0.0, 0.0, 0.0, 1.7011970555030336E9, 0.0, 2023-11-28 16:44:15.503
15.0, -1155.9320182045922, -2006.4151873281226, -1334.2822372415103, -2080.3473996021785, -0.01600000075995922, 0.01600000075995922, -0.9760000463575125, 0.0, 0.0, 0.0, 0.0, 0.0, 1.7011970555030336E9, 0.0, 2023-11-28 16:44:15.503
16.0, -1152.3678935468197, -1954.5278153428808, -1244.7153732026927, -1991.2106240582652, -0.01600000075995922, 0.01600000075995922, -0.9760000463575125, 0.0, 0.0, 0.0, 0.0, 0.0, 1.701197055517949E9, 0.0, 2023-11-28 16:44:15.517
16.0, -1215.235611801967, -2053.747361167334, -1459.69230245566, -2218.2262912685983, -0.01600000075995922, 0.01600000075995922, -0.9760000463575125, 0.0, 0.0, 0.0, 0.0, 0.0, 1.701197055517949E9, 0.0, 2023-11-28 16:44:15.517
17.0, -1179.7103021228686, -2044.3976112781093, -1404.2819447121583, -2163.077726521995, -0.01600000075995922, 0.01600000075995922, -0.9760000463575125, 0.0, 0.0, 0.0, 0.0, 0.0, 1.701197055534145E9, 0.0, 2023-11-28 16:44:15.534
17.0, -1134.6407677568495, -1961.5251681599766, -1222.328332067933, -1970.4766187039204, -0.01600000075995922, 0.01600000075995922, -0.9760000463575125, 0.0, 0.0, 0.0, 0.0, 0.0, 1.701197055534145E9, 0.0, 2023-11-28 16:44:15.534
18.0, -1203.6980204386637, -2030.7881153393537, -1386.4388820235617, -2145.5974341291003, -0.01600000075995922, 0.01600000075995922, -0.9760000463575125, 0.0, 0.0, 0.0, 0.0, 0.0, 1.7011970555486047E9, 0.0, 2023-11-28 16:44:15.548
18.0, -1210.2166660614312, -2067.027745909989, -1477.8270773408003, -2236.1591115561314, -0.01600000075995922, 0.01600000075995922, -0.9760000463575125, 0.0, 0.0, 0.0, 0.0, 0.0, 1.7011970555486047E9, 0.0, 2023-11-28 16:44:15.548
19.0, -1142.606754662469, -1981.9973805174232, -1260.0601827208884, -2006.4619360775687, -0.01600000075995922, 0.01600000075995922, -0.9760000463575125, 0.0, 0.0, 0.0, 0.0, 0.0, 1.7011970555492795E9, 0.0, 2023-11-28 16:44:15.549
19.0, -1179.815019321628, -1997.858296229504, -1315.2087474674918, -2053.6482538185082, -0.01600000075995922, 0.01600000075995922, -0.9760000463575125, 0.0, 0.0, 0.0, 0.0, 0.0, 1.7011970555492795E9, 0.0, 2023-11-28 16:44:15.549
20.0, -1217.094342079945, -2077.0282383915037, -1504.930132319685, -2254.3200657409616, -0.01600000075995922, 0.01600000075995922, -0.49600002355873585, 0.0, 0.0, 0.0, 0.0, 0.0, 1.7011970555636706E9, 0.0, 2023-11-28 16:44:15.563
20.0, -1163.1126261195168, -2024.452724814415, -1326.0993361384608, -2079.1768109160475, -0.01600000075995922, 0.01600000075995922, -0.49600002355873585, 0.0, 0.0, 0.0, 0.0, 0.0, 1.7011970555636706E9, 0.0, 2023-11-28 16:44:15.563
21.0, -1157.4578973865137, -1977.5020207706839, -1245.3174970955588, -1995.1786579112522, -0.01600000075995922, 0.01600000075995922, -0.49600002355873585, 0.0, 0.0, 0.0, 0.0, 0.0, 1.7011970555642867E9, 0.0, 2023-11-28 16:44:15.564
21.0, -1211.0656233513728, -2058.9271226059645, -1454.2470081201755, -2214.9052601079457, -0.01600000075995922, 0.01600000075995922, -0.49600002355873585, 0.0, 0.0, 0.0, 0.0, 0.0, 1.7011970555642867E9, 0.0, 2023-11-28 16:44:15.564
22.0, -1172.226762311533, -2047.4306701421738, -1405.3328565997072, -2164.4315703059547, -0.01600000075995922, 0.01600000075995922, -0.49600002355873585, 0.0, 0.0, 0.0, 0.0, 0.0, 1.7011970555779464E9, 0.0, 2023-11-28 16:44:15.577
22.0, -1146.417712717317, -1969.5622131647542, -1220.5107406894676, -1978.936272403691, -0.01600000075995922, 0.01600000075995922, -0.49600002355873585, 0.0, 0.0, 0.0, 0.0, 0.0, 1.7011970555779464E9, 0.0, 2023-11-28 16:44:15.577
23.0, -1210.340082759969, -2040.1116859288886, -1387.16068271501, -2142.007130171638, -0.01600000075995922, 0.01600000075995922, -0.49600002355873585, 0.0, 0.0, 0.0, 0.0, 0.0, 1.701197055593635E9, 0.0, 2023-11-28 16:44:15.593
23.0, -1202.9986591469496, -2075.236826312728, -1477.6887010424398, -2232.4940095995553, -0.01600000075995922, 0.01600000075995922, -0.49600002355873585, 0.0, 0.0, 0.0, 0.0, 0.0, 1.701197055593635E9, 0.0, 2023-11-28 16:44:15.593
24.0, -1149.9332186756656, -1996.4259145464748, -1264.1478933724575, -2010.4673689301126, -0.01600000075995922, 0.01600000075995922, -0.49600002355873585, 0.0, 0.0, 0.0, 0.0, 0.0, 1.7011970555943663E9, 0.0, 2023-11-28 16:44:15.594
24.0, -1189.7855926034972, -2013.1208279486746, -1319.6405289149843, -2057.5190502726473, -0.01600000075995922, 0.01600000075995922, -0.49600002355873585, 0.0, 0.0, 0.0, 0.0, 0.0, 1.7011970555943663E9, 0.0, 2023-11-28 16:44:15.594
25.0, -1229.0283628385514, -2081.269284941256, -1514.6613520043902, -2253.3177725528367, -0.01600000075995922, 0.01600000075995922, -0.49600002355873585, 0.0, 0.0, 0.0, 0.0, 0.0, 1.7011970556243005E9, 0.0, 2023-11-28 16:44:15.624
25.0, -1173.965815790929, -2030.6123400414363, -1347.057735490147, -2088.45924260607, -0.01600000075995922, 0.01600000075995922, -0.49600002355873585, 0.0, 0.0, 0.0, 0.0, 0.0, 1.7011970556243005E9, 0.0, 2023-11-28 16:44:15.624
26.0, -1153.9872702276334, -1976.787699879147, -1245.7176663908176, -1993.3648064327426, -0.01600000075995922, 0.01600000075995922, -0.49600002355873585, 0.0, 0.0, 0.0, 0.0, 0.0, 1.7011970556250374E9, 0.0, 2023-11-28 16:44:15.625
26.0, -1219.2896633539349, -2071.366029858589, -1465.5228064865805, -2216.068368994165, -0.01600000075995922, 0.01600000075995922, -0.49600002355873585, 0.0, 0.0, 0.0, 0.0, 0.0, 1.7011970556250374E9, 0.0, 2023-11-28 16:44:15.625
27.0, -1190.462514495477, -2056.028700140305, -1418.830155539792, -2171.8290924183093, -0.01600000075995922, 0.01600000075995922, -0.49600002355873585, 0.0, 0.0, 0.0, 0.0, 0.0, 1.701197055625804E9, 0.0, 2023-11-28 16:44:15.625
27.0, -1156.3097481001168, -1980.6697160331532, -1234.2810523263179, -1977.5412897202186, -0.01600000075995922, 0.01600000075995922, -0.49600002355873585, 0.0, 0.0, 0.0, 0.0, 0.0, 1.701197055625804E9, 0.0, 2023-11-28 16:44:15.625
28.0, -1207.2845844961703, -2045.3961645662785, -1394.853656923864, -2143.2562567568384, -0.01600000075995922, 0.01600000075995922, -0.49600002355873585, 0.0, 0.0, 0.0, 0.0, 0.0, 1.701197055637951E9, 0.0, 2023-11-28 16:44:15.637
28.0, -1209.326569871977, -2088.2105392590165, -1470.5118330274709, -2231.4393578120507, -0.01600000075995922, 0.01600000075995922, -0.49600002355873585, 0.0, 0.0, 0.0, 0.0, 0.0, 1.701197055637951E9, 0.0, 2023-11-28 16:44:15.637
29.0, -1151.496496857144, -2003.4045678637922, -1262.876327387523, -1997.8639060794376, -0.01600000075995922, 0.01600000075995922, -0.49600002355873585, 0.0, 0.0, 0.0, 0.0, 0.0, 1.7011970556536193E9, 0.0, 2023-11-28 16:44:15.653
29.0, -1198.4621605006978, -2012.1970726596192, -1303.2448075092398, -2057.496610872913, -0.01600000075995922, 0.01600000075995922, -0.49600002355873585, 0.0, 0.0, 0.0, 0.0, 0.0, 1.7011970556536193E9, 0.0, 2023-11-28 16:44:15.653
30.0, -1235.135619466193, -2094.007384190336, -1498.2656305986457, -2250.019180791918, -0.01600000075995922, 0.01600000075995922, -0.7360000349581242, 0.0, 0.0, 0.0, 0.0, 0.0, 1.7011970556543074E9, 0.0, 2023-11-28 16:44:15.654
30.0, -1168.4719027560204, -2031.4276382317767, -1321.9891860871576, -2076.532701647375, -0.01600000075995922, 0.01600000075995922, -0.7360000349581242, 0.0, 0.0, 0.0, 0.0, 0.0, 1.7011970556543074E9, 0.0, 2023-11-28 16:44:15.654
31.0, -1158.1722182780504, -1988.089677545242, -1242.7407060260884, -1987.9307317971252, -0.01600000075995922, 0.01600000075995922, -0.7360000349581242, 0.0, 0.0, 0.0, 0.0, 0.0, 1.7011970556679757E9, 0.0, 2023-11-28 16:44:15.667
31.0, -1221.0548961330205, -2080.0799967553467, -1450.862398660276, -2209.9237133669667, -0.01600000075995922, 0.01600000075995922, -0.7360000349581242, 0.0, 0.0, 0.0, 0.0, 0.0, 1.7011970556679757E9, 0.0, 2023-11-28 16:44:15.667
32.0, -1190.1558426991105, -2067.955241099, -1401.1179893496446, -2164.6971032028086, -0.01600000075995922, 0.01600000075995922, -0.7360000349581242, 0.0, 0.0, 0.0, 0.0, 0.0, 1.7011970556836996E9, 0.0, 2023-11-28 16:44:15.683
32.0, -1145.8716873237863, -1981.7617668202147, -1221.4457156783901, -1974.5418899557553, -0.01600000075995922, 0.01600000075995922, -0.7360000349581242, 0.0, 0.0, 0.0, 0.0, 0.0, 1.7011970556836996E9, 0.0, 2023-11-28 16:44:15.683
33.0, -1212.7971970308572, -2054.4429825590923, -1391.8093783599325, -2143.69756495161, -0.01600000075995922, 0.01600000075995922, -0.7360000349581242, 0.0, 0.0, 0.0, 0.0, 0.0, 1.70119705568446E9, 0.0, 2023-11-28 16:44:15.684
33.0, -1219.723491748795, -2092.2384115112945, -1481.0471312026493, -2234.730469773058, -0.01600000075995922, 0.01600000075995922, -0.7360000349581242, 0.0, 0.0, 0.0, 0.0, 0.0, 1.70119705568446E9, 0.0, 2023-11-28 16:44:15.684
34.0, -1157.1362659903243, -2002.0133250802755, -1281.8264004630037, -2016.8925170539878, -0.01600000075995922, 0.01600000075995922, -0.7360000349581242, 0.0, 0.0, 0.0, 0.0, 0.0, 1.7011970556979513E9, 0.0, 2023-11-28 16:44:15.697
34.0, -1204.05705083441, -2031.3341407328844, -1318.1296093328856, -2066.8014819626696, -0.01600000075995922, 0.01600000075995922, -0.7360000349581242, 0.0, 0.0, 0.0, 0.0, 0.0, 1.7011970556979513E9, 0.0, 2023-11-28 16:44:15.697
35.0, -1241.0521411960945, -2101.8985730968416, -1518.053441264201, -2266.7178340940736, -0.01600000075995922, 0.01600000075995922, -0.7360000349581242, 0.0, 0.0, 0.0, 0.0, 0.0, 1.7011970557137506E9, 0.0, 2023-11-28 16:44:15.713
35.0, -1183.409063179046, -2047.35587214306, -1348.4714176733978, -2092.1767031620257, -0.01600000075995922, 0.01600000075995922, -0.7360000349581242, 0.0, 0.0, 0.0, 0.0, 0.0, 1.7011970557137506E9, 0.0, 2023-11-28 16:44:15.713
36.0, -1177.473841949366, -2001.9385270811617, -1260.5052308156155, -1992.4747102432884, -0.01600000075995922, 0.01600000075995922, -0.7360000349581242, 0.0, 0.0, 0.0, 0.0, 0.0, 1.7011970557143729E9, 0.0, 2023-11-28 16:44:15.714
36.0, -1237.9742035325617, -2079.376895563677, -1464.842144694645, -2213.128807628993, -0.01600000075995922, 0.01600000075995922, -0.7360000349581242, 0.0, 0.0, 0.0, 0.0, 0.0, 1.7011970557143729E9, 0.0, 2023-11-28 16:44:15.714
37.0, -1205.1977203208953, -2068.3367108944803, -1419.7800901285373, -2158.4140712772496, -0.01600000075995922, 0.01600000075995922, -0.7360000349581242, 0.0, 0.0, 0.0, 0.0, 0.0, 1.7011970557279406E9, 0.0, 2023-11-28 16:44:15.727
37.0, -1162.7760351235047, -1993.1086232857779, -1223.4577818545513, -1974.8373420522548, -0.01600000075995922, 0.01600000075995922, -0.7360000349581242, 0.0, 0.0, 0.0, 0.0, 0.0, 1.7011970557279406E9, 0.0, 2023-11-28 16:44:15.727
38.0, -1223.0819219090044, -2057.461081823334, -1384.1500632506795, -2140.3615741911344, -0.01600000075995922, 0.01600000075995922, -0.7360000349581242, 0.0, 0.0, 0.0, 0.0, 0.0, 1.7011970557435944E9, 0.0, 2023-11-28 16:44:15.743
38.0, -1222.9996441099793, -2093.3491617981344, -1472.1087703085504, -2235.777641760651, -0.01600000075995922, 0.01600000075995922, -0.7360000349581242, 0.0, 0.0, 0.0, 0.0, 0.0, 1.7011970557435944E9, 0.0, 2023-11-28 16:44:15.743
39.0, -1155.2850155122578, -2015.6789195183665, -1257.1991592547856, -1997.9349641785957, -0.01600000075995922, 0.01600000075995922, -0.7360000349581242, 0.0, 0.0, 0.0, 0.0, 0.0, 1.7011970557443638E9, 0.0, 2023-11-28 16:44:15.744
39.0, -1193.9443613542244, -2022.5416359370574, -1301.602991428692, -2050.454379256349, -0.01600000075995922, 0.01600000075995922, -0.7360000349581242, 0.0, 0.0, 0.0, 0.0, 0.0, 1.7011970557443638E9, 0.0, 2023-11-28 16:44:15.744
40.0, -1246.280521334149, -2098.0165569428355, -1499.2305247872137, -2253.5758256497793, -0.01600000075995922, 0.01600000075995922, -0.8640000410377979, 0.0, 0.0, 0.0, 0.0, 0.0, 1.7011970557580125E9, 0.0, 2023-11-28 16:44:15.758
40.0, -1194.213634151034, -2046.5143946530297, -1341.0439763613977, -2088.9192503006198, -0.01600000075995922, 0.01600000075995922, -0.8640000410377979, 0.0, 0.0, 0.0, 0.0, 0.0, 1.7011970557580125E9, 0.0, 2023-11-28 16:44:15.758
41.0, -1182.9340958846733, -2004.7733712475747, -1239.8235840606503, -1993.6153797297738, -0.01600000075995922, 0.01600000075995922, -0.8640000410377979, 0.0, 0.0, 0.0, 0.0, 0.0, 1.7011970557736373E9, 0.0, 2023-11-28 16:44:15.773
41.0, -1245.6858772411942, -2091.0079844258726, -1466.0314328805543, -2211.172839952167, -0.01600000075995922, 0.01600000075995922, -0.8640000410377979, 0.0, 0.0, 0.0, 0.0, 0.0, 1.7011970557736373E9, 0.0, 2023-11-28 16:44:15.773
42.0, -1215.5348037984222, -2081.583436537534, -1419.4734183321707, -2175.703628772404, -0.03200000151991844, 0.01600000075995922, -0.8640000410377979, 0.0, 0.0, 0.0, 0.0, 0.0, 1.701197055774406E9, 0.0, 2023-11-28 16:44:15.774
42.0, -1170.9925953261554, -2001.6916936840862, -1232.059551752638, -1977.6011281195097, -0.03200000151991844, 0.01600000075995922, -0.8640000410377979, 0.0, 0.0, 0.0, 0.0, 0.0, 1.701197055774406E9, 0.0, 2023-11-28 16:44:15.774
43.0, -1231.7547499062493, -2063.635656650178, -1399.8202440650202, -2140.3017357918434, -0.03200000151991844, 0.01600000075995922, -0.8640000410377979, 0.0, 0.0, 0.0, 0.0, 0.0, 1.7011970557879608E9, 0.0, 2023-11-28 16:44:15.787
43.0, -1241.1007598955184, -2105.305621956475, -1488.8560423101299, -2235.2166567672975, -0.03200000151991844, 0.01600000075995922, -0.8640000410377979, 0.0, 0.0, 0.0, 0.0, 0.0, 1.7011970557879608E9, 0.0, 2023-11-28 16:44:15.787
44.0, -1173.0981590012088, -2013.442459344864, -1267.1472931369208, -2007.2697544679977, -0.03200000151991844, 0.01600000075995922, -0.8640000410377979, 0.0, 0.0, 0.0, 0.0, 0.0, 1.701197055803614E9, 0.0, 2023-11-28 16:44:15.803
44.0, -1208.4402135824785, -2033.96703030169, -1302.9194362130947, -2058.0014973669313, -0.03200000151991844, 0.01600000075995922, -0.8640000410377979, 0.0, 0.0, 0.0, 0.0, 0.0, 1.701197055803614E9, 0.0, 2023-11-28 16:44:15.803
45.0, -1252.7243689578027, -2112.022482276894, -1497.5999284065329, -2249.6526705962606, -0.03200000151991844, 0.01600000075995922, -0.8640000410377979, 0.0, 0.0, 0.0, 0.0, 0.0, 1.7011970558043067E9, 0.0, 2023-11-28 16:44:15.804
45.0, -1185.7502405513078, -2051.5557797932997, -1322.6885473788716, -2078.5372880236246, -0.03200000151991844, 0.01600000075995922, -0.8640000410377979, 0.0, 0.0, 0.0, 0.0, 0.0, 1.7011970558043067E9, 0.0, 2023-11-28 16:44:15.804
46.0, -1182.406769990921, -2003.9281538575888, -1239.9544805590995, -1982.866907257121, -0.03200000151991844, 0.01600000075995922, -0.8640000410377979, 0.0, 0.0, 0.0, 0.0, 0.0, 1.7011970558343067E9, 0.0, 2023-11-28 16:44:15.834
46.0, -1252.623391658999, -2094.3514549862593, -1454.5948188160546, -2209.6357410703786, -0.03200000151991844, 0.01600000075995922, -0.8640000410377979, 0.0, 0.0, 0.0, 0.0, 0.0, 1.7011970558343067E9, 0.0, 2023-11-28 16:44:15.834
47.0, -1212.8645152300596, -2087.0062914732844, -1418.1382740479894, -2167.57682616869, -0.03200000151991844, 0.01600000075995922, -0.8640000410377979, 0.0, 0.0, 0.0, 0.0, 0.0, 1.701197055835059E9, 0.0, 2023-11-28 16:44:15.835
47.0, -1170.7008831296116, -2005.745745236054, -1228.839497890789, -1974.848561752122, -0.03200000151991844, 0.01600000075995922, -0.8640000410377979, 0.0, 0.0, 0.0, 0.0, 0.0, 1.701197055835059E9, 0.0, 2023-11-28 16:44:15.835
48.0, -1234.376419775188, -2067.8991425996646, -1387.643129809294, -2140.79914248595, -0.03200000151991844, 0.01600000075995922, -0.8640000410377979, 0.0, 0.0, 0.0, 0.0, 0.0, 1.7011970558357713E9, 0.0, 2023-11-28 16:44:15.835
48.0, -1237.6750115361065, -2106.992316836491, -1492.678220064845, -2237.1352254445665, -0.03200000151991844, 0.01600000075995922, -0.8640000410377979, 0.0, 0.0, 0.0, 0.0, 0.0, 1.7011970558357713E9, 0.0, 2023-11-28 16:44:15.835
49.0, -1174.6913563823327, -2031.8839060263708, -1280.6745112766512, -2022.4724477878772, -0.03200000151991844, 0.01600000075995922, -0.8640000410377979, 0.0, 0.0, 0.0, 0.0, 0.0, 1.7011970558482404E9, 0.0, 2023-11-28 16:44:15.848
49.0, -1213.619975021109, -2042.1349718049169, -1314.2214138791896, -2068.8546870383434, -0.03200000151991844, 0.01600000075995922, -0.8640000410377979, 0.0, 0.0, 0.0, 0.0, 0.0, 1.7011970558482404E9, 0.0, 2023-11-28 16:44:15.848
50.0, -1255.1403443291783, -2119.4835826884955, -1510.51380295353, -2258.680789089296, -0.03200000151991844, 0.01600000075995922, -0.9280000440776348, 0.0, 0.0, 0.0, 0.0, 0.0, 1.7011970558636785E9, 0.0, 2023-11-28 16:44:15.863
50.0, -1192.8485706672072, -2056.5036674346775, -1344.3724873219617, -2084.091039457824, -0.03200000151991844, 0.01600000075995922, -0.9280000440776348, 0.0, 0.0, 0.0, 0.0, 0.0, 1.7011970558636785E9, 0.0, 2023-11-28 16:44:15.863
51.0, -1179.6916026230901, -2011.6697467658669, -1237.7554193851538, -1988.596433989238, -0.03200000151991844, 0.01600000075995922, -0.9280000440776348, 0.0, 0.0, 0.0, 0.0, 0.0, 1.7011970558643968E9, 0.0, 2023-11-28 16:44:15.864
51.0, -1249.0480473013595, -2095.7726169694215, -1464.165222802665, -2210.6043751589023, -0.03200000151991844, 0.01600000075995922, -0.9280000440776348, 0.0, 0.0, 0.0, 0.0, 0.0, 1.7011970558643968E9, 0.0, 2023-11-28 16:44:15.864
52.0, -1211.5592901455238, -2089.6354411421344, -1405.5572505970486, -2161.413471041713, -0.03200000151991844, 0.01600000075995922, -0.9280000440776348, 0.0, 0.0, 0.0, 0.0, 0.0, 1.7011970558778884E9, 0.0, 2023-11-28 16:44:15.877
52.0, -1171.39650452137, -2018.2818898875266, -1226.367424020078, -1971.9576190863736, -0.03200000151991844, 0.01600000075995922, -0.9280000440776348, 0.0, 0.0, 0.0, 0.0, 0.0, 1.7011970558778884E9, 0.0, 2023-11-28 16:44:15.877
53.0, -1228.6805521426722, -2069.5671379799023, -1398.724453378003, -2135.8961336440407, -0.03200000151991844, 0.01600000075995922, -0.9280000440776348, 0.0, 0.0, 0.0, 0.0, 0.0, 1.7011970558936343E9, 0.0, 2023-11-28 16:44:15.893
53.0, -1233.8603135813028, -2108.600473817438, -1481.2752650999464, -2230.6464990214445, -0.03200000151991844, 0.01600000075995922, -0.9280000440776348, 0.0, 0.0, 0.0, 0.0, 0.0, 1.7011970558936343E9, 0.0, 2023-11-28 16:44:15.893
54.0, -1177.6346576474607, -2028.7274304637685, -1262.8090091883205, -2011.125591322314, -0.03200000151991844, 0.01600000075995922, -0.9280000440776348, 0.0, 0.0, 0.0, 0.0, 0.0, 1.7011970558944118E9, 0.0, 2023-11-28 16:44:15.894
54.0, -1205.8372432133183, -2036.7083769692108, -1310.7470468203537, -2064.239650493022, -0.03200000151991844, 0.01600000075995922, -0.9280000440776348, 0.0, 0.0, 0.0, 0.0, 0.0, 1.7011970558944118E9, 0.0, 2023-11-28 16:44:15.894
55.0, -1255.6302712233737, -2124.528707728721, -1498.2357113990001, -2258.030046497006, -0.03200000151991844, 0.01600000075995922, -0.9280000440776348, 0.0, 0.0, 0.0, 0.0, 0.0, 1.7011970559079115E9, 0.0, 2023-11-28 16:44:15.907
55.0, -1200.522845376283, -2069.3726631822065, -1336.6159348138608, -2091.3090463723056, -0.03200000151991844, 0.01600000075995922, -0.9280000440776348, 0.0, 0.0, 0.0, 0.0, 0.0, 1.7011970559079115E9, 0.0, 2023-11-28 16:44:15.907
56.0, -1196.8128646202385, -2021.438365450129, -1231.0609984644689, -1989.924098473508, -0.03200000151991844, 0.01600000075995922, -0.9280000440776348, 0.0, 0.0, 0.0, 0.0, 0.0, 1.701197055923658E9, 0.0, 2023-11-28 16:44:15.923
56.0, -1261.3149191560224, -2109.3559336084872, -1453.9590358235873, -2222.7366106151603, -0.03200000151991844, 0.01600000075995922, -0.9280000440776348, 0.0, 0.0, 0.0, 0.0, 0.0, 1.701197055923658E9, 0.0, 2023-11-28 16:44:15.923
57.0, -1227.5473624560982, -2100.286676215939, -1416.3319023693912, -2178.658149737399, -0.03200000151991844, 0.01600000075995922, -0.9280000440776348, 0.0, 0.0, 0.0, 0.0, 0.0, 1.701197055924399E9, 0.0, 2023-11-28 16:44:15.924
57.0, -1181.853264797479, -2022.36586063914, -1225.2117949337699, -1986.004683319945, -0.03200000151991844, 0.01600000075995922, -0.9280000440776348, 0.0, 0.0, 0.0, 0.0, 0.0, 1.701197055924399E9, 0.0, 2023-11-28 16:44:15.924
58.0, -1238.778282023035, -2072.9629671396688, -1392.3367042536847, -2135.252870851662, -0.03200000151991844, 0.01600000075995922, -0.9280000440776348, 0.0, 0.0, 0.0, 0.0, 0.0, 1.7011970559379272E9, 0.0, 2023-11-28 16:44:15.937
58.0, -1248.3150269100443, -2116.39068542514, -1490.4193204916082, -2236.0992731568404, -0.03200000151991844, 0.01600000075995922, -0.9280000440776348, 0.0, 0.0, 0.0, 0.0, 0.0, 1.7011970559379272E9, 0.0, 2023-11-28 16:44:15.937
59.0, -1186.2364275455475, -2031.4164185319096, -1265.1015678611584, -2011.8099930142052, -0.03200000151991844, 0.01600000075995922, -0.9280000440776348, 0.0, 0.0, 0.0, 0.0, 0.0, 1.701197055953961E9, 0.0, 2023-11-28 16:44:15.953
59.0, -1216.1444074911997, -2041.2934943148866, -1315.9118486591615, -2052.92645312706, -0.03200000151991844, 0.01600000075995922, -0.9280000440776348, 0.0, 0.0, 0.0, 0.0, 0.0, 1.701197055953961E9, 0.0, 2023-11-28 16:44:15.953
60.0, -1262.5229068417102, -2119.4686230886728, -1510.8391742496751, -2251.3393654762767, -0.03200000151991844, 0.01600000075995922, -0.9600000455975533, 0.0, 0.0, 0.0, 0.0, 0.0, 1.7011970559543536E9, 0.0, 2023-11-28 16:44:15.954
60.0, -1210.9160273531452, -2069.4175419816747, -1346.6987050944008, -2090.048700087238, -0.03200000151991844, 0.01600000075995922, -0.9600000455975533, 0.0, 0.0, 0.0, 0.0, 0.0, 1.7011970559543536E9, 0.0, 2023-11-28 16:44:15.954
61.0, -1194.153795751743, -2019.5459760725498, -1251.959559416864, -1986.2253374173306, -0.03200000151991844, 0.01600000075995922, -0.9600000455975533, 0.0, 0.0, 0.0, 0.0, 0.0, 1.7011970559680867E9, 0.0, 2023-11-28 16:44:15.968
61.0, -1258.5735724885017, -2104.3145484682173, -1468.9485548459925, -2205.843482515309, -0.03200000151991844, 0.01600000075995922, -0.9600000455975533, 0.0, 0.0, 0.0, 0.0, 0.0, 1.7011970559680867E9, 0.0, 2023-11-28 16:44:15.968
62.0, -1227.3192285588011, -2097.163859752938, -1416.4627988678403, -2163.279681119602, -0.03200000151991844, 0.01600000075995922, -0.9600000455975533, 0.0, 0.0, 0.0, 0.0, 0.0, 1.7011970559836657E9, 0.0, 2023-11-28 16:44:15.983
62.0, -1180.1179512180388, -2012.6346409544349, -1221.6214909763075, -1976.920466327574, -0.03200000151991844, 0.01600000075995922, -0.9600000455975533, 0.0, 0.0, 0.0, 0.0, 0.0, 1.7011970559836657E9, 0.0, 2023-11-28 16:44:15.983
63.0, -1245.5961196422577, -2072.525398844853, -1378.6748497155495, -2138.3495080149733, -0.03200000151991844, 0.01600000075995922, -0.9600000455975533, 0.0, 0.0, 0.0, 0.0, 0.0, 1.701197055984315E9, 0.0, 2023-11-28 16:44:15.984
63.0, -1247.5969661185518, -2116.428084424697, -1464.961821493227, -2229.9359180298634, -0.03200000151991844, 0.01600000075995922, -0.9600000455975533, 0.0, 0.0, 0.0, 0.0, 0.0, 1.701197055984315E9, 0.0, 2023-11-28 16:44:15.984
64.0, -1184.228101269342, -2035.679904481396, -1250.6954732318409, -2006.5404739766382, -0.03200000151991844, 0.01600000075995922, -0.9600000455975533, 0.0, 0.0, 0.0, 0.0, 0.0, 1.7011970559979591E9, 0.0, 2023-11-28 16:44:15.997
64.0, -1228.7291708420962, -2045.5308009646833, -1301.6665697279386, -2056.3447216865607, -0.03200000151991844, 0.01600000075995922, -0.9600000455975533, 0.0, 0.0, 0.0, 0.0, 0.0, 1.7011970559979591E9, 0.0, 2023-11-28 16:44:15.997
65.0, -1266.468501294963, -2113.6194195579737, -1500.371194273699, -2252.0387267679907, -0.03200000151991844, 0.01600000075995922, -0.9600000455975533, 0.0, 0.0, 0.0, 0.0, 0.0, 1.7011970560136242E9, 0.0, 2023-11-28 16:44:16.013
65.0, -1206.768478302285, -2061.552532374859, -1332.7002595602535, -2082.6025592754595, -0.03200000151991844, 0.01600000075995922, -0.9600000455975533, 0.0, 0.0, 0.0, 0.0, 0.0, 1.7011970560136242E9, 0.0, 2023-11-28 16:44:16.013
66.0, -1200.4405675772578, -2028.49181676656, -1255.168393578846, -1994.7036906168796, -0.03200000151991844, 0.01600000075995922, -0.9600000455975533, 0.0, 0.0, 0.0, 0.0, 0.0, 1.7011970560143347E9, 0.0, 2023-11-28 16:44:16.014
66.0, -1256.2847537156194, -2111.9102852782235, -1470.0368657330982, -2212.429446337279, -0.03200000151991844, 0.01600000075995922, -0.9600000455975533, 0.0, 0.0, 0.0, 0.0, 0.0, 1.7011970560143347E9, 0.0, 2023-11-28 16:44:16.014
67.0, -1227.2294709598646, -2105.4215588551015, -1430.8127949978225, -2176.4553486634977, -0.03200000151991844, 0.01600000075995922, -0.9600000455975533, 0.0, 0.0, 0.0, 0.0, 0.0, 1.7011970560279272E9, 0.0, 2023-11-28 16:44:16.027
67.0, -1190.4737341953442, -2026.8612203858793, -1234.4044690248556, -1972.5410434794612, -0.03200000151991844, 0.01600000075995922, -0.9600000455975533, 0.0, 0.0, 0.0, 0.0, 0.0, 1.7011970560279272E9, 0.0, 2023-11-28 16:44:16.027
68.0, -1247.9971354138106, -2080.435287251137, -1392.8341109477915, -2129.6654603178613, -0.03200000151991844, 0.01600000075995922, -0.9600000455975533, 0.0, 0.0, 0.0, 0.0, 0.0, 1.7011970560436325E9, 0.0, 2023-11-28 16:44:16.043
68.0, -1250.0241611897945, -2121.64898476284, -1474.1021369849332, -2222.474817618262, -0.03200000151991844, 0.01600000075995922, -0.9600000455975533, 0.0, 0.0, 0.0, 0.0, 0.0, 1.7011970560436325E9, 0.0, 2023-11-28 16:44:16.043
69.0, -1192.6765352692455, -2037.4825362600386, -1253.1114486032166, -2001.6524247345515, -0.03200000151991844, 0.01600000075995922, -0.9600000455975533, 0.0, 0.0, 0.0, 0.0, 0.0, 1.701197056044384E9, 0.0, 2023-11-28 16:44:16.044
69.0, -1231.287262411788, -2054.686076056212, -1312.3926028008573, -2046.3629287048243, -0.03200000151991844, 0.01600000075995922, -0.9600000455975533, 0.0, 0.0, 0.0, 0.0, 0.0, 1.701197056044384E9, 0.0, 2023-11-28 16:44:16.044
70.0, -1268.8545574666932, -2128.137711185962, -1499.0023908899166, -2243.0554870744236, -0.03200000151991844, 0.01600000075995922, -0.9760000463575125, 0.0, 0.0, 0.0, 0.0, 0.0, 1.7011970560579348E9, 0.0, 2023-11-28 16:44:16.057
70.0, -1207.1349884979427, -2066.904329211451, -1342.184645847883, -2078.795341120567, -0.03200000151991844, 0.01600000075995922, -0.9760000463575125, 0.0, 0.0, 0.0, 0.0, 0.0, 1.7011970560579348E9, 0.0, 2023-11-28 16:44:16.057
71.0, -1199.0119257941842, -2019.5534558724612, -1241.551417840179, -1980.346214686986, -0.03200000151991844, 0.01600000075995922, -0.9760000463575125, 0.0, 0.0, 0.0, 0.0, 0.0, 1.7011970560736349E9, 0.0, 2023-11-28 16:44:16.073
71.0, -1258.1397440936416, -2104.509023265913, -1448.3117868904956, -2203.0609969482757, -0.03200000151991844, 0.01600000075995922, -0.9760000463575125, 0.0, 0.0, 0.0, 0.0, 0.0, 1.7011970560736349E9, 0.0, 2023-11-28 16:44:16.073
72.0, -1236.1341727543622, -2099.254463828169, -1422.3868003976531, -2165.575979692396, -0.03200000151991844, 0.01600000075995922, -0.9760000463575125, 0.0, 0.0, 0.0, 0.0, 0.0, 1.7011970560743809E9, 0.0, 2023-11-28 16:44:16.074
72.0, -1188.6000443175435, -2024.5088233137503, -1233.398435936775, -1971.8005432882346, -0.03200000151991844, 0.01600000075995922, -0.9760000463575125, 0.0, 0.0, 0.0, 0.0, 0.0, 1.7011970560743809E9, 0.0, 2023-11-28 16:44:16.074
73.0, -1252.5822527594864, -2085.5327708907425, -1389.7711328840815, -2137.4556719255634, -0.03200000151991844, 0.01600000075995922, -0.9760000463575125, 0.0, 0.0, 0.0, 0.0, 0.0, 1.7011970560879219E9, 0.0, 2023-11-28 16:44:16.087
73.0, -1262.4855078421533, -2127.5505468929186, -1489.3758884039707, -2232.209777202923, -0.03200000151991844, 0.01600000075995922, -0.9760000463575125, 0.0, 0.0, 0.0, 0.0, 0.0, 1.7011970560879219E9, 0.0, 2023-11-28 16:44:16.087
74.0, -1207.7296325908974, -2049.753148014657, -1267.338028034661, -2006.7012896747328, -0.03200000151991844, 0.01600000075995922, -0.9760000463575125, 0.0, 0.0, 0.0, 0.0, 0.0, 1.7011970561036987E9, 0.0, 2023-11-28 16:44:16.103
74.0, -1229.4846306331456, -2059.6863222969696, -1303.9740880005993, -2050.8844677512534, -0.03200000151991844, 0.01600000075995922, -0.9760000463575125, 0.0, 0.0, 0.0, 0.0, 0.0, 1.7011970561036987E9, 0.0, 2023-11-28 16:44:16.103
75.0, -1275.4106020890176, -2138.2354410663247, -1501.8708941559307, -2245.7669145422988, -0.03200000151991844, 0.01600000075995922, -0.9760000463575125, 0.0, 0.0, 0.0, 0.0, 0.0, 1.7011970561043632E9, 0.0, 2023-11-28 16:44:16.104
75.0, -1216.2640842897817, -2079.5638905614614, -1342.2557039470412, -2088.590139104519, -0.03200000151991844, 0.01600000075995922, -0.9760000463575125, 0.0, 0.0, 0.0, 0.0, 0.0, 1.7011970561043632E9, 0.0, 2023-11-28 16:44:16.104
76.0, -1204.9321874240413, -2027.2090310817584, -1259.461798727978, -1992.2091773464344, -0.03200000151991844, 0.01600000075995922, -0.9760000463575125, 0.0, 0.0, 0.0, 0.0, 0.0, 1.701197056134401E9, 0.0, 2023-11-28 16:44:16.134
76.0, -1274.4569276003167, -2118.3840521015227, -1475.6093166670762, -2217.5942481760867, -0.03200000151991844, 0.01600000075995922, -0.9760000463575125, 0.0, 0.0, 0.0, 0.0, 0.0, 1.701197056134401E9, 0.0, 2023-11-28 16:44:16.134
77.0, -1236.7362966472283, -2112.43387127202, -1421.2610905109905, -2169.0166876516305, -0.03200000151991844, 0.01600000075995922, -0.9760000463575125, 0.0, 0.0, 0.0, 0.0, 0.0, 1.701197056135038E9, 0.0, 2023-11-28 16:44:16.135
77.0, -1196.6445691222325, -2034.258742498234, -1229.9689476774074, -1975.5030442443676, -0.03200000151991844, 0.01600000075995922, -0.9760000463575125, 0.0, 0.0, 0.0, 0.0, 0.0, 1.701197056135038E9, 0.0, 2023-11-28 16:44:16.135
78.0, -1259.5160272773355, -2096.8235288569704, -1400.6766811548732, -2139.015210207086, -0.03200000151991844, 0.01600000075995922, -0.9760000463575125, 0.0, 0.0, 0.0, 0.0, 0.0, 1.7011970561357477E9, 0.0, 2023-11-28 16:44:16.135
78.0, -1260.391163866967, -2132.745267931372, -1491.436573279556, -2234.1320857801475, -0.03200000151991844, 0.01600000075995922, -0.9760000463575125, 0.0, 0.0, 0.0, 0.0, 0.0, 1.7011970561357477E9, 0.0, 2023-11-28 16:44:16.135
79.0, -1201.8542497605085, -2055.968861741014, -1272.6973046711646, -2013.5714858933352, -0.03200000151991844, 0.01600000075995922, -0.9760000463575125, 0.0, 0.0, 0.0, 0.0, 0.0, 1.7011970561479757E9, 0.0, 2023-11-28 16:44:16.147
79.0, -1229.2003982365131, -2063.953548146412, -1302.3771507195197, -2056.1053680893965, -0.03200000151991844, 0.01600000075995922, -0.9760000463575125, 0.0, 0.0, 0.0, 0.0, 0.0, 1.7011970561479757E9, 0.0, 2023-11-28 16:44:16.147
80.0, -1265.2455540094525, -2137.315425677225, -1476.649008854758, -2252.491254662629, -0.03200000151991844, 0.01600000075995922, -0.9760000463575125, 0.0, 0.0, 0.0, 0.0, 0.0, 1.7011970561635945E9, 0.0, 2023-11-28 16:44:16.163
80.0, -1206.4505868060514, -2080.69334034808, -1324.3677624589764, -2084.382751654368, -0.03200000151991844, 0.01600000075995922, -0.9760000463575125, 0.0, 0.0, 0.0, 0.0, 0.0, 1.7011970561635945E9, 0.0, 2023-11-28 16:44:16.163
81.0, -1202.6246691513807, -2037.3665993614122, -1236.4763736003079, -1994.7672689161263, -0.03200000151991844, 0.01600000075995922, -0.9760000463575125, 0.0, 0.0, 0.0, 0.0, 0.0, 1.7011970561643307E9, 0.0, 2023-11-28 16:44:16.164
81.0, -1270.6833685450256, -2121.7649216614664, -1455.4437761059962, -2210.0957487649284, -0.03200000151991844, 0.01600000075995922, -0.9760000463575125, 0.0, 0.0, 0.0, 0.0, 0.0, 1.7011970561643307E9, 0.0, 2023-11-28 16:44:16.164
82.0, -1241.1119795953855, -2119.805214084685, -1410.2620447413065, -2166.46607588185, -0.03200000151991844, 0.01600000075995922, -0.9760000463575125, 0.0, 0.0, 0.0, 0.0, 0.0, 1.7011970561779876E9, 0.0, 2023-11-28 16:44:16.177
82.0, -1192.4371816720814, -2031.592193829827, -1224.6769892401062, -1976.3445217343979, -0.03200000151991844, 0.01600000075995922, -0.9760000463575125, 0.0, 0.0, 0.0, 0.0, 0.0, 1.7011970561779876E9, 0.0, 2023-11-28 16:44:16.177
83.0, -1251.9502096669748, -2094.9984576785937, -1387.194341814611, -2134.5460297600366, -0.03200000151991844, 0.01600000075995922, -0.9760000463575125, 0.0, 0.0, 0.0, 0.0, 0.0, 1.701197056193608E9, 0.0, 2023-11-28 16:44:16.193
83.0, -1268.641383169219, -2143.804152100347, -1490.049070395995, -2232.789461696055, -0.03200000151991844, 0.01600000075995922, -0.9760000463575125, 0.0, 0.0, 0.0, 0.0, 0.0, 1.701197056193608E9, 0.0, 2023-11-28 16:44:16.193
84.0, -1207.9353270884603, -2065.1241368325427, -1272.2485166764818, -2003.3129403148778, -0.03200000151991844, 0.01600000075995922, -0.9760000463575125, 0.0, 0.0, 0.0, 0.0, 0.0, 1.7011970561943069E9, 0.0, 2023-11-28 16:44:16.194
84.0, -1237.3571200398728, -2071.029438862577, -1324.2368659605272, -2047.8663684870116, -0.03200000151991844, 0.01600000075995922, -0.9760000463575125, 0.0, 0.0, 0.0, 0.0, 0.0, 1.7011970561943069E9, 0.0, 2023-11-28 16:44:16.194
85.0, -1283.0549575984478, -2155.046291367151, -1499.9037067792378, -2245.400404346641, -0.03200000151991844, 0.01600000075995922, -0.9760000463575125, 0.0, 0.0, 0.0, 0.0, 0.0, 1.701197056208007E9, 0.0, 2023-11-28 16:44:16.208
85.0, -1226.4366121692583, -2101.662959399633, -1349.1371198655106, -2090.643344180193, -0.03200000151991844, 0.01600000075995922, -0.9760000463575125, 0.0, 0.0, 0.0, 0.0, 0.0, 1.701197056208007E9, 0.0, 2023-11-28 16:44:16.208
86.0, -1216.2566044898704, -2056.0473996400833, -1252.1241150149144, -1991.057288160082, -0.03200000151991844, 0.01600000075995922, -0.9760000463575125, 0.0, 0.0, 0.0, 0.0, 0.0, 1.7011970562236311E9, 0.0, 2023-11-28 16:44:16.223
86.0, -1281.5028991168365, -2136.436549187638, -1464.4457152993418, -2211.258857651148, -0.03200000151991844, 0.01600000075995922, -0.9760000463575125, 0.0, 0.0, 0.0, 0.0, 0.0, 1.7011970562236311E9, 0.0, 2023-11-28 16:44:16.223
87.0, -1248.7301558051258, -2123.8742252364755, -1422.4578584968112, -2174.0730323917232, -0.03200000151991844, 0.01600000075995922, -0.9760000463575125, 0.0, 0.0, 0.0, 0.0, 0.0, 1.7011970562243435E9, 0.0, 2023-11-28 16:44:16.224
87.0, -1217.4346729759127, -2051.458542394452, -1238.8474701722153, -1979.0185502027161, -0.03200000151991844, 0.01600000075995922, -0.9760000463575125, 0.0, 0.0, 0.0, 0.0, 0.0, 1.7011970562243435E9, 0.0, 2023-11-28 16:44:16.224
88.0, -1270.122383551672, -2111.917765078135, -1398.8740493762307, -2145.3879997315817, -0.03200000151991844, 0.01600000075995922, -0.9760000463575125, 0.0, 0.0, 0.0, 0.0, 0.0, 1.7011970562379382E9, 0.0, 2023-11-28 16:44:16.237
88.0, -1267.5717717818916, -2138.2279612664133, -1478.5825371318497, -2238.2534555313177, -0.03200000151991844, 0.01600000075995922, -0.9760000463575125, 0.0, 0.0, 0.0, 0.0, 0.0, 1.7011970562379382E9, 0.0, 2023-11-28 16:44:16.237
89.0, -1196.625869622454, -2054.902990253642, -1265.0529491617344, -2019.110277727712, -0.03200000151991844, 0.01600000075995922, -0.9760000463575125, 0.0, 0.0, 0.0, 0.0, 0.0, 1.7011970562536325E9, 0.0, 2023-11-28 16:44:16.253
89.0, -1229.9708176273853, -2061.601151074283, -1312.5608982988633, -2063.4617513022386, -0.03200000151991844, 0.01600000075995922, -0.9760000463575125, 0.0, 0.0, 0.0, 0.0, 0.0, 1.7011970562536325E9, 0.0, 2023-11-28 16:44:16.253
90.0, -1271.2256540386006, -2139.0469993567094, -1496.1825063233264, -2252.745567859616, -0.03200000151991844, 0.01600000075995922, -0.9760000463575125, 0.0, 0.0, 0.0, 0.0, 0.0, 1.7011970562543144E9, 0.0, 2023-11-28 16:44:16.254
90.0, -1210.762691454962, -2089.059496548958, -1332.1654538665898, -2087.2101160208695, -0.03200000151991844, 0.01600000075995922, -0.9760000463575125, 0.0, 0.0, 0.0, 0.0, 0.0, 1.7011970562543144E9, 0.0, 2023-11-28 16:44:16.254
91.0, -1213.414280523546, -2048.5339406291023, -1247.4567198702134, -1994.3820592206903, -0.03200000151991844, 0.03200000151991844, -0.9760000463575125, 0.0, 0.0, 0.0, 0.0, 0.0, 1.7011970562679305E9, 0.0, 2023-11-28 16:44:16.267
91.0, -1279.1729414444417, -2131.286706948653, -1470.7848457242362, -2208.812963080127, -0.03200000151991844, 0.03200000151991844, -0.9760000463575125, 0.0, 0.0, 0.0, 0.0, 0.0, 1.7011970562679305E9, 0.0, 2023-11-28 16:44:16.267
92.0, -1246.112225836143, -2122.7073764503, -1427.6301401355304, -2174.0805121916346, -0.01600000075995922, 0.03200000151991844, -0.9760000463575125, 0.0, 0.0, 0.0, 0.0, 0.0, 1.7011970563000133E9, 0.0, 2023-11-28 16:44:16.300
92.0, -1213.2160658258945, -2055.639750544913, -1240.2461927556433, -1979.5832750960253, -0.01600000075995922, 0.03200000151991844, -0.9760000463575125, 0.0, 0.0, 0.0, 0.0, 0.0, 1.7011970563000133E9, 0.0, 2023-11-28 16:44:16.300
93.0, -1261.46451515425, -2110.9902698891237, -1384.3520178482868, -2134.48245146079, -0.01600000075995922, 0.03200000151991844, -0.9760000463575125, 0.0, 0.0, 0.0, 0.0, 0.0, 1.7011970563007395E9, 0.0, 2023-11-28 16:44:16.300
93.0, -1273.6977279093117, -2151.6616819072515, -1479.8989819162525, -2233.7431361847557, -0.01600000075995922, 0.03200000151991844, -0.9760000463575125, 0.0, 0.0, 0.0, 0.0, 0.0, 1.7011970563007395E9, 0.0, 2023-11-28 16:44:16.300
94.0, -1221.2044921312481, -2079.885521957651, -1271.3584204870276, -2010.2467148327269, -0.01600000075995922, 0.03200000151991844, -0.9760000463575125, 0.0, 0.0, 0.0, 0.0, 0.0, 1.7011970563014574E9, 0.0, 2023-11-28 16:44:16.301
94.0, -1245.278228146024, -2077.686460783705, -1294.5121411127038, -2047.2418051944114, -0.01600000075995922, 0.03200000151991844, -0.9760000463575125, 0.0, 0.0, 0.0, 0.0, 0.0, 1.7011970563014574E9, 0.0, 2023-11-28 16:44:16.301
95.0, -1290.2916640127078, -2153.3745560869575, -1491.02518428443, -2248.5194809096865, -0.01600000075995922, 0.03200000151991844, -0.9760000463575125, 0.0, 0.0, 0.0, 0.0, 0.0, 1.701197056302209E9, 0.0, 2023-11-28 16:44:16.302
95.0, -1235.8873393572867, -2104.0228362716734, -1337.3826143047772, -2088.1039521102794, -0.01600000075995922, 0.03200000151991844, -0.9760000463575125, 0.0, 0.0, 0.0, 0.0, 0.0, 1.701197056302209E9, 0.0, 2023-11-28 16:44:16.302
96.0, -1227.2332108598202, -2058.594271509908, -1244.9622065997683, -1993.903352026362, -0.01600000075995922, 0.03200000151991844, -0.9760000463575125, 0.0, 0.0, 0.0, 0.0, 0.0, 1.701197056313055E9, 0.0, 2023-11-28 16:44:16.313
96.0, -1284.9847459755838, -2133.7363414196298, -1452.4630758413114, -2206.288530610036, -0.01600000075995922, 0.03200000151991844, -0.9760000463575125, 0.0, 0.0, 0.0, 0.0, 0.0, 1.701197056313055E9, 0.0, 2023-11-28 16:44:16.313
97.0, -1245.169771047309, -2131.092232150957, -1406.0509173911996, -2171.372824623715, -0.01600000075995922, 0.03200000151991844, -0.9760000463575125, 0.0, 0.0, 0.0, 0.0, 0.0, 1.7011970563443065E9, 0.0, 2023-11-28 16:44:16.344
97.0, -1208.4925721818581, -2052.1616435861215, -1226.1916487221606, -1977.429092721548, -0.01600000075995922, 0.03200000151991844, -0.9760000463575125, 0.0, 0.0, 0.0, 0.0, 0.0, 1.7011970563443065E9, 0.0, 2023-11-28 16:44:16.344
98.0, -1260.282706768252, -2102.096787794493, -1377.934349524323, -2131.707445693668, -0.01600000075995922, 0.03200000151991844, -0.9760000463575125, 0.0, 0.0, 0.0, 0.0, 0.0, 1.7011970563450756E9, 0.0, 2023-11-28 16:44:16.345
98.0, -1273.7388668088242, -2144.1818819958717, -1472.4004825050943, -2241.144398197066, -0.01600000075995922, 0.03200000151991844, -0.9760000463575125, 0.0, 0.0, 0.0, 0.0, 0.0, 1.7011970563450756E9, 0.0, 2023-11-28 16:44:16.345
99.0, -1211.521891145967, -2065.0044600339606, -1271.9231453803368, -2019.3945101243444, -0.01600000075995922, 0.03200000151991844, -0.9760000463575125, 0.0, 0.0, 0.0, 0.0, 0.0, 1.7011970563458102E9, 0.0, 2023-11-28 16:44:16.345
99.0, -1236.90833204519, -2070.17674167268, -1299.9050768488087, -2058.139873665292, -0.01600000075995922, 0.03200000151991844, -0.9760000463575125, 0.0, 0.0, 0.0, 0.0, 0.0, 1.7011970563458102E9, 0.0, 2023-11-28 16:44:16.345
100.0, -1277.033718669787, -2142.6747023137286, -1498.8901938912459, -2248.609238508623, -0.01600000075995922, 0.03200000151991844, -0.9920000471174717, 0.0, 0.0, 0.0, 0.0, 0.0, 1.7011970563586133E9, 0.0, 2023-11-28 16:44:16.358
100.0, -1225.535296279937, -2092.2533711111173, -1331.1407212787308, -2101.601251050364, -0.01600000075995922, 0.03200000151991844, -0.9920000471174717, 0.0, 0.0, 0.0, 0.0, 0.0, 1.7011970563586133E9, 0.0, 2023-11-28 16:44:16.358
0.0, -1216.0135109927505, -2055.7949563930742, -1239.309347816743, -1994.4362877700478, -0.01600000075995922, 0.03200000151991844, -0.9920000471174717, 0.0, 0.0, 0.0, 0.0, 0.0, 1.7011970563593316E9, 0.0, 2023-11-28 16:44:16.359
1.0, -1285.34377637133, -2138.9740713075735, -1464.4588049491867, -2210.7820204067975, -0.01600000075995922, 0.01600000075995922, -0.9920000471174717, 0.0, 0.0, 0.0, 0.0, 0.0, 1.701197056372962E9, 0.0, 2023-11-28 16:44:16.372
1.0, -1259.583345476538, -2129.2278920230456, -1426.4464617995545, -2177.309915803373, -0.01600000075995922, 0.01600000075995922, -0.9920000471174717, 0.0, 0.0, 0.0, 0.0, 0.0, 1.701197056372962E9, 0.0, 2023-11-28 16:44:16.372
2.0, -1211.6602674443275, -2055.8248755927198, -1242.6453385772184, -1984.9930403819308, -0.03200000151991844, 0.01600000075995922, -0.9920000471174717, 0.0, 0.0, 0.0, 0.0, 0.0, 1.701197056388621E9, 0.0, 2023-11-28 16:44:16.388
2.0, -1271.1919949389994, -2105.2738328068517, -1386.0592821780592, -2132.2329016374424, -0.03200000151991844, 0.01600000075995922, -0.9920000471174717, 0.0, 0.0, 0.0, 0.0, 0.0, 1.701197056388621E9, 0.0, 2023-11-28 16:44:16.388
3.0, -1280.8671161243692, -2151.970223653596, -1490.6717637386173, -2236.430254302919, -0.03200000151991844, 0.01600000075995922, -0.9920000471174717, 0.0, 0.0, 0.0, 0.0, 0.0, 1.7011970563893592E9, 0.0, 2023-11-28 16:44:16.389
3.0, -1231.0853078141809, -2081.3721321900375, -1284.7603519782424, -2025.2081846054643, -0.03200000151991844, 0.01600000075995922, -0.9920000471174717, 0.0, 0.0, 0.0, 0.0, 0.0, 1.7011970563893592E9, 0.0, 2023-11-28 16:44:16.389
4.0, -1248.632918406278, -2078.301674326416, -1312.28601565212, -2050.093478910625, -0.03200000151991844, 0.01600000075995922, -0.9920000471174717, 0.0, 0.0, 0.0, 0.0, 0.0, 1.701197056402972E9, 0.0, 2023-11-28 16:44:16.402
4.0, -1288.2047998374328, -2147.8413741025142, -1493.4355498058721, -2246.3634285852313, -0.03200000151991844, 0.01600000075995922, -0.9920000471174717, 0.0, 0.0, 0.0, 0.0, 0.0, 1.701197056402972E9, 0.0, 2023-11-28 16:44:16.402
5.0, -1229.9034994281828, -2094.237388037611, -1349.602737409994, -2092.8068763045594, -0.03200000151991844, 0.01600000075995922, -0.9920000471174717, 0.0, 0.0, 0.0, 0.0, 0.0, 1.701197056418655E9, 0.0, 2023-11-28 16:44:16.418
5.0, -1221.5298634273931, -2047.2006662948988, -1239.791794911027, -1987.0948641570285, -0.03200000151991844, 0.01600000075995922, -0.9920000471174717, 0.0, 0.0, 0.0, 0.0, 0.0, 1.701197056418655E9, 0.0, 2023-11-28 16:44:16.418
6.0, -1274.2886321023107, -2117.6005430608056, -1461.4332258850336, -2203.092786097899, -0.03200000151991844, 0.01600000075995922, -0.9920000471174717, 0.0, 0.0, 0.0, 0.0, 0.0, 1.7011970564193096E9, 0.0, 2023-11-28 16:44:16.419
6.0, -1254.4671623371542, -2125.775964363944, -1411.5504402760416, -2176.707791910507, -0.03200000151991844, 0.01600000075995922, -0.9920000471174717, 0.0, 0.0, 0.0, 0.0, 0.0, 1.7011970564193096E9, 0.0, 2023-11-28 16:44:16.419
7.0, -1210.4223605589941, -2050.3160029579885, -1222.0310100214556, -1980.5986579339951, -0.03200000151991844, 0.01600000075995922, -0.9920000471174717, 0.0, 0.0, 0.0, 0.0, 0.0, 1.7011970564329665E9, 0.0, 2023-11-28 16:44:16.432
7.0, -1264.516273518093, -2092.5432133576833, -1379.091848560609, -2124.2145561324432, -0.03200000151991844, 0.01600000075995922, -0.9920000471174717, 0.0, 0.0, 0.0, 0.0, 0.0, 1.7011970564329665E9, 0.0, 2023-11-28 16:44:16.432
8.0, -1272.0746113285422, -2142.0632286709733, -1481.2172966506332, -2232.0807506544515, -0.03200000151991844, 0.01600000075995922, -0.9920000471174717, 0.0, 0.0, 0.0, 0.0, 0.0, 1.7011970564487462E9, 0.0, 2023-11-28 16:44:16.448
8.0, -1218.1228145677596, -2066.651885964442, -1273.7762658083811, -2019.3103623753414, -0.03200000151991844, 0.01600000075995922, -0.9920000471174717, 0.0, 0.0, 0.0, 0.0, 0.0, 1.7011970564487462E9, 0.0, 2023-11-28 16:44:16.448
9.0, -1242.8846921743825, -2071.053748212289, -1305.1315870368853, -2050.250554708764, -0.03200000151991844, 0.01600000075995922, -0.9920000471174717, 0.0, 0.0, 0.0, 0.0, 0.0, 1.7011970564493563E9, 0.0, 2023-11-28 16:44:16.449
9.0, -1286.0992361623794, -2143.547968953382, -1492.7810673136264, -2238.274024981074, -0.03200000151991844, 0.01600000075995922, -0.9920000471174717, 0.0, 0.0, 0.0, 0.0, 0.0, 1.7011970564493563E9, 0.0, 2023-11-28 16:44:16.449
10.0, -1236.4483243506402, -2100.239927466493, -1349.3185050133616, -2091.871901315637, -0.03200000151991844, 0.01600000075995922, -0.9920000471174717, 0.0, 0.0, 0.0, 0.0, 0.0, 1.7011970564629464E9, 0.0, 2023-11-28 16:44:16.462
10.0, -1220.7033455371857, -2044.2611049297266, -1243.6588514652103, -1992.0165724987164, -0.03200000151991844, 0.01600000075995922, -0.9920000471174717, 0.0, 0.0, 0.0, 0.0, 0.0, 1.7011970564629464E9, 0.0, 2023-11-28 16:44:16.462
11.0, -1278.204307355918, -2129.9496927144937, -1468.628793399781, -2206.2941404599696, -0.03200000151991844, 0.03200000151991844, -0.9920000471174717, 0.0, 0.0, 0.0, 0.0, 0.0, 1.7011970564787538E9, 0.0, 2023-11-28 16:44:16.478
11.0, -1250.162537488155, -2121.0861298195086, -1421.5247534578666, -2167.6534941177815, -0.03200000151991844, 0.03200000151991844, -0.9920000471174717, 0.0, 0.0, 0.0, 0.0, 0.0, 1.7011970564787538E9, 0.0, 2023-11-28 16:44:16.478
12.0, -1222.206785319373, -2047.6344946897589, -1240.5173355024308, -1980.6397968335077, -0.03200000151991844, 0.03200000151991844, -0.9920000471174717, 0.0, 0.0, 0.0, 0.0, 0.0, 1.7011970564792912E9, 0.0, 2023-11-28 16:44:16.479
12.0, -1262.4817679421976, -2095.8904238180257, -1387.2485703639686, -2134.9443291053176, -0.03200000151991844, 0.03200000151991844, -0.9920000471174717, 0.0, 0.0, 0.0, 0.0, 0.0, 1.7011970564792912E9, 0.0, 2023-11-28 16:44:16.479
13.0, -1277.2244535675272, -2146.2444368214346, -1490.3538722423837, -2236.9052215972915, -0.03200000151991844, 0.03200000151991844, -0.9920000471174717, 0.0, 0.0, 0.0, 0.0, 0.0, 1.701197056492941E9, 0.0, 2023-11-28 16:44:16.492
13.0, -1206.0429377108812, -2061.382366926875, -1268.9368352657184, -2022.945545132272, -0.03200000151991844, 0.03200000151991844, -0.9920000471174717, 0.0, 0.0, 0.0, 0.0, 0.0, 1.701197056492941E9, 0.0, 2023-11-28 16:44:16.492
14.0, -1246.3627991331741, -2068.97062393697, -1310.3038686756045, -2051.4286231948063, -0.03200000151991844, 0.03200000151991844, -0.9920000471174717, 0.0, 0.0, 0.0, 0.0, 0.0, 1.7011970565086117E9, 0.0, 2023-11-28 16:44:16.508
14.0, -1295.3405289528891, -2148.316341396887, -1491.928370123729, -2247.6275147702545, -0.03200000151991844, 0.03200000151991844, -0.9920000471174717, 0.0, 0.0, 0.0, 0.0, 0.0, 1.7011970565086117E9, 0.0, 2023-11-28 16:44:16.508
15.0, -1228.6094940435141, -2089.626091392245, -1343.499220682308, -2088.6780267534778, -0.03200000151991844, 0.03200000151991844, -0.9920000471174717, 0.0, 0.0, 0.0, 0.0, 0.0, 1.7011970565093153E9, 0.0, 2023-11-28 16:44:16.509
15.0, -1228.9199057398364, -2057.9865377671085, -1252.7393285576254, -2000.476226198487, -0.03200000151991844, 0.03200000151991844, -0.9920000471174717, 0.0, 0.0, 0.0, 0.0, 0.0, 1.7011970565093153E9, 0.0, 2023-11-28 16:44:16.509
16.0, -1283.342929895036, -2129.5158643196337, -1450.0601901197806, -2205.325506371446, -0.03200000151991844, 0.03200000151991844, -0.9920000471174717, 0.0, 0.0, 0.0, 0.0, 0.0, 1.7011970565231276E9, 0.0, 2023-11-28 16:44:16.523
16.0, -1246.4338572323322, -2123.8648754865862, -1413.824299449101, -2174.0337634421885, -0.03200000151991844, 0.03200000151991844, -0.9920000471174717, 0.0, 0.0, 0.0, 0.0, 0.0, 1.7011970565231276E9, 0.0, 2023-11-28 16:44:16.523
17.0, -1208.5860696807504, -2053.7043523178436, -1236.003276255913, -1981.7879461199045, -0.03200000151991844, 0.03200000151991844, -0.9920000471174717, 0.0, 0.0, 0.0, 0.0, 0.0, 1.7011970565549755E9, 0.0, 2023-11-28 16:44:16.554
17.0, -1267.6652692807838, -2106.21254769573, -1384.1107943011448, -2132.19176273793, -0.03200000151991844, 0.03200000151991844, -0.9920000471174717, 0.0, 0.0, 0.0, 0.0, 0.0, 1.7011970565549755E9, 0.0, 2023-11-28 16:44:16.554
18.0, -1268.6900018686429, -2139.2022052048706, -1484.7328026089817, -2233.341096939519, -0.03200000151991844, 0.03200000151991844, -0.9920000471174717, 0.0, 0.0, 0.0, 0.0, 0.0, 1.7011970565557492E9, 0.0, 2023-11-28 16:44:16.555
18.0, -1209.7678780667484, -2060.552109136712, -1271.1059772400185, -2019.7591503700241, -0.03200000151991844, 0.03200000151991844, -0.9920000471174717, 0.0, 0.0, 0.0, 0.0, 0.0, 1.7011970565557492E9, 0.0, 2023-11-28 16:44:16.555
19.0, -1246.1795440353453, -2072.5197889949195, -1307.2296709120274, -2054.8768109539524, -0.03200000151991844, 0.03200000151991844, -0.9920000471174717, 0.0, 0.0, 0.0, 0.0, 0.0, 1.7011970565564685E9, 0.0, 2023-11-28 16:44:16.556
19.0, -1285.9047613646835, -2150.7659758678637, -1483.644491721876, -2237.466206590645, -0.03200000151991844, 0.03200000151991844, -0.9920000471174717, 0.0, 0.0, 0.0, 0.0, 0.0, 1.7011970565564685E9, 0.0, 2023-11-28 16:44:16.556
20.0, -1234.6120334723964, -2094.8095927308314, -1349.3446843130514, -2098.528923236765, -0.03200000151991844, 0.03200000151991844, -0.9920000471174717, 0.0, 0.0, 0.0, 0.0, 0.0, 1.7011970565572283E9, 0.0, 2023-11-28 16:44:16.557
20.0, -1228.7179511422291, -2051.284637046512, -1254.336265838705, -1984.0805047927424, -0.03200000151991844, 0.03200000151991844, -0.9920000471174717, 0.0, 0.0, 0.0, 0.0, 0.0, 1.7011970565572283E9, 0.0, 2023-11-28 16:44:16.557
21.0, -1288.926600528881, -2133.622274470981, -1452.2368118939921, -2199.0200350461528, -0.03200000151991844, 0.03200000151991844, -0.9920000471174717, 0.0, 0.0, 0.0, 0.0, 0.0, 1.7011970565679932E9, 0.0, 2023-11-28 16:44:16.567
21.0, -1256.7410215102136, -2126.4641059557907, -1420.8702709656209, -2176.0832286179066, -0.03200000151991844, 0.03200000151991844, -0.9920000471174717, 0.0, 0.0, 0.0, 0.0, 0.0, 1.7011970565679932E9, 0.0, 2023-11-28 16:44:16.567
22.0, -1212.7485783314332, -2043.3373496406712, -1237.4917564382777, -1982.083398216404, -0.03200000151991844, 0.03200000151991844, -0.9920000471174717, 0.0, 0.0, 0.0, 0.0, 0.0, 1.701197056583036E9, 0.0, 2023-11-28 16:44:16.583
22.0, -1265.8701173020527, -2093.702582343947, -1380.973018238321, -2126.9708623997867, -0.03200000151991844, 0.03200000151991844, -0.9920000471174717, 0.0, 0.0, 0.0, 0.0, 0.0, 1.701197056583036E9, 0.0, 2023-11-28 16:44:16.583
23.0, -1267.915842577815, -2136.580535335932, -1472.6903247516602, -2228.57646439597, -0.03200000151991844, 0.03200000151991844, -0.9920000471174717, 0.0, 0.0, 0.0, 0.0, 0.0, 1.7011970565987577E9, 0.0, 2023-11-28 16:44:16.598
23.0, -1212.0342574398965, -2062.1228671181016, -1276.2670391788706, -2016.6550334068015, -0.03200000151991844, 0.03200000151991844, -0.9920000471174717, 0.0, 0.0, 0.0, 0.0, 0.0, 1.7011970565987577E9, 0.0, 2023-11-28 16:44:16.598
24.0, -1245.0949730481952, -2070.186091422569, -1314.0774277308956, -2055.291939849034, -0.03200000151991844, 0.03200000151991844, -0.9920000471174717, 0.0, 0.0, 0.0, 0.0, 0.0, 1.7011970565994105E9, 0.0, 2023-11-28 16:44:16.599
24.0, -1291.1368814026937, -2140.7093848870136, -1494.4191434942186, -2246.0118779893965, -0.03200000151991844, 0.03200000151991844, -0.9920000471174717, 0.0, 0.0, 0.0, 0.0, 0.0, 1.7011970565994105E9, 0.0, 2023-11-28 16:44:16.599
25.0, -1233.0412754910067, -2091.9859682642855, -1349.071671616286, -2097.949238743633, -0.03200000151991844, 0.03200000151991844, -0.9920000471174717, 0.0, 0.0, 0.0, 0.0, 0.0, 1.7011970566129975E9, 0.0, 2023-11-28 16:44:16.612
25.0, -1224.5180434919894, -2045.7084462125786, -1239.8815525099635, -1983.4260223004967, -0.03200000151991844, 0.03200000151991844, -0.9920000471174717, 0.0, 0.0, 0.0, 0.0, 0.0, 1.7011970566129975E9, 0.0, 2023-11-28 16:44:16.612
26.0, -1281.4879395170137, -2127.9638058380224, -1460.3411750979722, -2198.9863759465516, -0.03200000151991844, 0.03200000151991844, -0.9920000471174717, 0.0, 0.0, 0.0, 0.0, 0.0, 1.7011970566284387E9, 0.0, 2023-11-28 16:44:16.628
26.0, -1246.5834532305598, -2121.8228901107796, -1411.931910071522, -2163.3600889686495, -0.03200000151991844, 0.03200000151991844, -0.9920000471174717, 0.0, 0.0, 0.0, 0.0, 0.0, 1.7011970566284387E9, 0.0, 2023-11-28 16:44:16.628
27.0, -1212.81215663068, -2051.494071444031, -1240.1844844063744, -1975.897603689693, -0.03200000151991844, 0.03200000151991844, -0.9920000471174717, 0.0, 0.0, 0.0, 0.0, 0.0, 1.7011970566436648E9, 0.0, 2023-11-28 16:44:16.643
27.0, -1275.380682889372, -2103.4525015284307, -1387.884353356436, -2129.7084691673517, -0.03200000151991844, 0.03200000151991844, -0.9920000471174717, 0.0, 0.0, 0.0, 0.0, 0.0, 1.7011970566436648E9, 0.0, 2023-11-28 16:44:16.643
28.0, -1287.7485320428386, -2146.756803115364, -1468.9466848960146, -2228.613863395527, -0.03200000151991844, 0.03200000151991844, -0.9920000471174717, 0.0, 0.0, 0.0, 0.0, 0.0, 1.701197056644362E9, 0.0, 2023-11-28 16:44:16.644
28.0, -1218.6052616620436, -2063.345814403612, -1264.0039072241634, -2008.4646525038406, -0.03200000151991844, 0.03200000151991844, -0.9920000471174717, 0.0, 0.0, 0.0, 0.0, 0.0, 1.701197056644362E9, 0.0, 2023-11-28 16:44:16.644
29.0, -1241.744022687897, -2069.6587655288167, -1301.7918563764542, -2040.7250295216218, -0.03200000151991844, 0.03200000151991844, -0.9920000471174717, 0.0, 0.0, 0.0, 0.0, 0.0, 1.701197056658754E9, 0.0, 2023-11-28 16:44:16.658
29.0, -1280.6539418268949, -2144.56522174133, -1481.3968118485063, -2237.754178887233, -0.03200000151991844, 0.03200000151991844, -0.9920000471174717, 0.0, 0.0, 0.0, 0.0, 0.0, 1.701197056658754E9, 0.0, 2023-11-28 16:44:16.658
30.0, -1228.3364813467488, -2095.6024515214376, -1343.910609677434, -2086.407907480374, -0.03200000151991844, 0.03200000151991844, -0.9920000471174717, 0.0, 0.0, 0.0, 0.0, 0.0, 1.7011970566593857E9, 0.0, 2023-11-28 16:44:16.659
30.0, -1220.1947191432118, -2050.551616655197, -1245.6559580415487, -1985.1089772805572, -0.03200000151991844, 0.03200000151991844, -0.9920000471174717, 0.0, 0.0, 0.0, 0.0, 0.0, 1.7011970566593857E9, 0.0, 2023-11-28 16:44:16.659
31.0, -1287.4867390459403, -2133.502597672399, -1460.8759807916358, -2205.37412507087, -0.03200000151991844, 0.01600000075995922, -0.9920000471174717, 0.0, 0.0, 0.0, 0.0, 0.0, 1.7011970566730173E9, 0.0, 2023-11-28 16:44:16.673
31.0, -1252.623391658999, -2128.6369878300466, -1416.6853229152039, -2166.744698428549, -0.03200000151991844, 0.01600000075995922, -0.9920000471174717, 0.0, 0.0, 0.0, 0.0, 0.0, 1.7011970566730173E9, 0.0, 2023-11-28 16:44:16.673
32.0, -1214.7344652079046, -2055.993171090726, -1232.30077529978, -1976.8774574780837, -0.03200000151991844, 0.01600000075995922, -0.9920000471174717, 0.0, 0.0, 0.0, 0.0, 0.0, 1.7011970566886344E9, 0.0, 2023-11-28 16:44:16.688
32.0, -1269.8082319553941, -2115.3005045880564, -1374.3795746164396, -2122.6924168504775, -0.03200000151991844, 0.01600000075995922, -0.9920000471174717, 0.0, 0.0, 0.0, 0.0, 0.0, 1.7011970566886344E9, 0.0, 2023-11-28 16:44:16.688
33.0, -1273.428455112502, -2148.7090308922343, -1487.1562577802688, -2230.7643058700487, -0.03200000151991844, 0.01600000075995922, -0.9920000471174717, 0.0, 0.0, 0.0, 0.0, 0.0, 1.701197056689361E9, 0.0, 2023-11-28 16:44:16.689
33.0, -1217.7862235717475, -2070.4553642193787, -1284.319043783471, -2020.207938364707, -0.03200000151991844, 0.01600000075995922, -0.9920000471174717, 0.0, 0.0, 0.0, 0.0, 0.0, 1.701197056689361E9, 0.0, 2023-11-28 16:44:16.689
34.0, -1241.3401134926826, -2063.140119906049, -1306.4592515211552, -2047.5017282413319, -0.03200000151991844, 0.01600000075995922, -0.9920000471174717, 0.0, 0.0, 0.0, 0.0, 0.0, 1.701197056702983E9, 0.0, 2023-11-28 16:44:16.702
34.0, -1283.1746343970299, -2136.034509942401, -1489.4226371534169, -2229.724613682367, -0.03200000151991844, 0.01600000075995922, -0.9920000471174717, 0.0, 0.0, 0.0, 0.0, 0.0, 1.701197056702983E9, 0.0, 2023-11-28 16:44:16.702
35.0, -1236.582960749045, -2096.1970956143923, -1351.3081317897886, -2094.512270684354, -0.03200000151991844, 0.01600000075995922, -0.9920000471174717, 0.0, 0.0, 0.0, 0.0, 0.0, 1.701197056718656E9, 0.0, 2023-11-28 16:44:16.718
35.0, -1233.265669488348, -2055.2601506994106, -1250.7609214810655, -1993.0039060870185, -0.03200000151991844, 0.01600000075995922, -0.9920000471174717, 0.0, 0.0, 0.0, 0.0, 0.0, 1.701197056718656E9, 0.0, 2023-11-28 16:44:16.718
36.0, -1288.9901788281277, -2136.060689242091, -1464.3316483506933, -2206.578372856602, -0.03200000151991844, 0.01600000075995922, -0.9920000471174717, 0.0, 0.0, 0.0, 0.0, 0.0, 1.7011970567193675E9, 0.0, 2023-11-28 16:44:16.719
36.0, -1258.049986494705, -2131.4942713961937, -1422.4335491470993, -2175.7316780220717, -0.03200000151991844, 0.01600000075995922, -0.9920000471174717, 0.0, 0.0, 0.0, 0.0, 0.0, 1.7011970567193675E9, 0.0, 2023-11-28 16:44:16.719
37.0, -1218.9381127581, -2048.9995581735857, -1238.3182743284851, -1981.226961126551, -0.03200000151991844, 0.01600000075995922, -0.9920000471174717, 0.0, 0.0, 0.0, 0.0, 0.0, 1.7011970567330215E9, 0.0, 2023-11-28 16:44:16.733
37.0, -1273.9782204059884, -2105.703921301756, -1379.5705557549372, -2126.170523809269, -0.03200000151991844, 0.01600000075995922, -0.9920000471174717, 0.0, 0.0, 0.0, 0.0, 0.0, 1.7011970567330215E9, 0.0, 2023-11-28 16:44:16.733
38.0, -1279.2626990433782, -2142.5419358653016, -1481.1013597520068, -2229.350623686798, -0.03200000151991844, 0.01600000075995922, -0.9920000471174717, 0.0, 0.0, 0.0, 0.0, 0.0, 1.7011970567486362E9, 0.0, 2023-11-28 16:44:16.748
38.0, -1215.8938341941684, -2066.038542371709, -1270.87036354281, -2019.5272765727714, -0.03200000151991844, 0.01600000075995922, -0.9920000471174717, 0.0, 0.0, 0.0, 0.0, 0.0, 1.7011970567486362E9, 0.0, 2023-11-28 16:44:16.748
39.0, -1244.5713870543987, -2067.9870302486233, -1306.6125874193385, -2049.154764021747, -0.03200000151991844, 0.01600000075995922, -0.9920000471174717, 0.0, 0.0, 0.0, 0.0, 0.0, 1.7011970567494013E9, 0.0, 2023-11-28 16:44:16.749
39.0, -1288.780744430609, -2148.9857834889553, -1488.2595282671973, -2241.9727860372514, -0.03200000151991844, 0.01600000075995922, -0.9920000471174717, 0.0, 0.0, 0.0, 0.0, 0.0, 1.7011970567494013E9, 0.0, 2023-11-28 16:44:16.749
40.0, -1238.1200596308336, -2101.990200645756, -1338.9253230364993, -2093.8652679920197, -0.03200000151991844, 0.01600000075995922, -0.9760000463575125, 0.0, 0.0, 0.0, 0.0, 0.0, 1.7011970567630026E9, 0.0, 2023-11-28 16:44:16.763
40.0, -1233.037535591051, -2060.391293438617, -1245.0837533483282, -1987.1696621561423, -0.03200000151991844, 0.01600000075995922, -0.9760000463575125, 0.0, 0.0, 0.0, 0.0, 0.0, 1.7011970567630026E9, 0.0, 2023-11-28 16:44:16.763
41.0, -1297.4236532282084, -2144.875633437652, -1454.6677468651906, -2193.698157409206, -0.03200000151991844, 0.01600000075995922, -0.9760000463575125, 0.0, 0.0, 0.0, 0.0, 0.0, 1.7011970567786655E9, 0.0, 2023-11-28 16:44:16.778
41.0, -1259.9498556721956, -2124.13040838344, -1424.2287011258304, -2171.722505269572, -0.03200000151991844, 0.01600000075995922, -0.9760000463575125, 0.0, 0.0, 0.0, 0.0, 0.0, 1.7011970567786655E9, 0.0, 2023-11-28 16:44:16.778
42.0, -1218.4519257638603, -2059.1683461531065, -1237.7909484347329, -1978.8895236542448, -0.03200000151991844, 0.01600000075995922, -0.9760000463575125, 0.0, 0.0, 0.0, 0.0, 0.0, 1.7011970567793968E9, 0.0, 2023-11-28 16:44:16.779
42.0, -1268.0429991763085, -2106.1714087962173, -1380.0754422489554, -2123.1374649452046, -0.03200000151991844, 0.01600000075995922, -0.9760000463575125, 0.0, 0.0, 0.0, 0.0, 0.0, 1.7011970567793968E9, 0.0, 2023-11-28 16:44:16.779
43.0, -1282.3668160066009, -2144.901812737342, -1492.6875698147342, -2237.873855685815, -0.03200000151991844, 0.01600000075995922, -0.9760000463575125, 0.0, 0.0, 0.0, 0.0, 0.0, 1.7011970567929556E9, 0.0, 2023-11-28 16:44:16.792
43.0, -1217.056943080388, -2067.3587270560674, -1279.1991207441315, -2024.4265455147251, -0.03200000151991844, 0.01600000075995922, -0.9760000463575125, 0.0, 0.0, 0.0, 0.0, 0.0, 1.7011970567929556E9, 0.0, 2023-11-28 16:44:16.792
44.0, -1250.0129414899275, -2065.219504281413, -1314.0923873307183, -2052.071885987185, -0.03200000151991844, 0.01600000075995922, -0.9760000463575125, 0.0, 0.0, 0.0, 0.0, 0.0, 1.701197056808638E9, 0.0, 2023-11-28 16:44:16.808
44.0, -1286.7574585545808, -2150.2124706744216, -1498.2338414490223, -2240.121535559185, -0.03200000151991844, 0.01600000075995922, -0.9760000463575125, 0.0, 0.0, 0.0, 0.0, 0.0, 1.701197056808638E9, 0.0, 2023-11-28 16:44:16.808
45.0, -1237.0317487437278, -2095.3855373240076, -1351.955134482123, -2094.994717778638, -0.03200000151991844, 0.01600000075995922, -0.9760000463575125, 0.0, 0.0, 0.0, 0.0, 0.0, 1.7011970568093424E9, 0.0, 2023-11-28 16:44:16.809
45.0, -1224.9967506863177, -2046.6359414015897, -1239.8591131102294, -1995.1393889617175, -0.03200000151991844, 0.01600000075995922, -0.9760000463575125, 0.0, 0.0, 0.0, 0.0, 0.0, 1.7011970568093424E9, 0.0, 2023-11-28 16:44:16.809
46.0, -1274.3185513019562, -2121.983705808874, -1440.9310943279415, -2203.900604488328, -0.03200000151991844, 0.01600000075995922, -0.9760000463575125, 0.0, 0.0, 0.0, 0.0, 0.0, 1.701197056822976E9, 0.0, 2023-11-28 16:44:16.822
46.0, -1256.64004421141, -2124.8297696751542, -1418.4056768948212, -2173.278303651139, -0.03200000151991844, 0.01600000075995922, -0.9760000463575125, 0.0, 0.0, 0.0, 0.0, 0.0, 1.701197056822976E9, 0.0, 2023-11-28 16:44:16.822
47.0, -1219.1288476558402, -2058.042636266444, -1227.4950038567185, -1982.419989212416, -0.03200000151991844, 0.01600000075995922, -0.9760000463575125, 0.0, 0.0, 0.0, 0.0, 0.0, 1.701197056838621E9, 0.0, 2023-11-28 16:44:16.838
47.0, -1270.3392977491021, -2101.0552256568335, -1369.8804749697447, -2124.854079024866, -0.03200000151991844, 0.01600000075995922, -0.9760000463575125, 0.0, 0.0, 0.0, 0.0, 0.0, 1.701197056838621E9, 0.0, 2023-11-28 16:44:16.838
48.0, -1284.378882182762, -2149.8422205788083, -1468.7671696981415, -2228.2959718992934, -0.03200000151991844, 0.01600000075995922, -0.9760000463575125, 0.0, 0.0, 0.0, 0.0, 0.0, 1.7011970568393912E9, 0.0, 2023-11-28 16:44:16.839
48.0, -1221.1371739320457, -2069.898119125981, -1268.544145770371, -2021.786176146008, -0.03200000151991844, 0.01600000075995922, -0.9760000463575125, 0.0, 0.0, 0.0, 0.0, 0.0, 1.7011970568393912E9, 0.0, 2023-11-28 16:44:16.839
49.0, -1248.3486860096455, -2066.4424515669234, -1303.8712407518178, -2045.545760564506, -0.03200000151991844, 0.01600000075995922, -0.9760000463575125, 0.0, 0.0, 0.0, 0.0, 0.0, 1.7011970568529997E9, 0.0, 2023-11-28 16:44:16.852
49.0, -1295.1684935549274, -2142.3362413677387, -1496.8650380652398, -2241.8157102391124, -0.03200000151991844, 0.01600000075995922, -0.9760000463575125, 0.0, 0.0, 0.0, 0.0, 0.0, 1.7011970568529997E9, 0.0, 2023-11-28 16:44:16.852
50.0, -1229.7875625295565, -2091.9523091646843, -1347.830024830997, -2095.0246369782835, -0.03200000151991844, 0.01600000075995922, -0.9920000471174717, 0.0, 0.0, 0.0, 0.0, 0.0, 1.7011970568686175E9, 0.0, 2023-11-28 16:44:16.868
50.0, -1227.6670392546803, -2047.4923784914427, -1244.7770815519616, -1982.891216606833, -0.03200000151991844, 0.01600000075995922, -0.9920000471174717, 0.0, 0.0, 0.0, 0.0, 0.0, 1.7011970568686175E9, 0.0, 2023-11-28 16:44:16.868
51.0, -1281.9516871115193, -2123.3936480921693, -1445.5386510733515, -2193.1259527159855, -0.03200000151991844, 0.01600000075995922, -0.9920000471174717, 0.0, 0.0, 0.0, 0.0, 0.0, 1.7011970568693295E9, 0.0, 2023-11-28 16:44:16.869
51.0, -1253.588285847567, -2119.163821242284, -1425.3207519128919, -2163.0122782727703, -0.03200000151991844, 0.01600000075995922, -0.9920000471174717, 0.0, 0.0, 0.0, 0.0, 0.0, 1.7011970568693295E9, 0.0, 2023-11-28 16:44:16.869
52.0, -1214.861621806398, -2045.1886001187377, -1233.9949499797076, -1975.0449064997956, -0.03200000151991844, 0.01600000075995922, -0.9920000471174717, 0.0, 0.0, 0.0, 0.0, 0.0, 1.7011970568830242E9, 0.0, 2023-11-28 16:44:16.883
52.0, -1271.1209368398413, -2098.2091617905535, -1380.8944803392515, -2125.0298543227836, -0.03200000151991844, 0.01600000075995922, -0.9920000471174717, 0.0, 0.0, 0.0, 0.0, 0.0, 1.7011970568830242E9, 0.0, 2023-11-28 16:44:16.883
53.0, -1277.3703096657991, -2142.4596580662765, -1480.5291550587863, -2233.980619831942, -0.03200000151991844, 0.01600000075995922, -0.9920000471174717, 0.0, 0.0, 0.0, 0.0, 0.0, 1.7011970568986447E9, 0.0, 2023-11-28 16:44:16.898
53.0, -1223.6952655017376, -2063.2074381052516, -1280.7474393257871, -2026.9434981849045, -0.03200000151991844, 0.01600000075995922, -0.9920000471174717, 0.0, 0.0, 0.0, 0.0, 0.0, 1.7011970568986447E9, 0.0, 2023-11-28 16:44:16.898
54.0, -1245.66343784146, -2068.7574496394955, -1300.1874392954633, -2047.946776336059, -0.03200000151991844, 0.01600000075995922, -0.9920000471174717, 0.0, 0.0, 0.0, 0.0, 0.0, 1.7011970568993294E9, 0.0, 2023-11-28 16:44:16.899
54.0, -1292.1915331901982, -2156.3159874021076, -1498.9519022405148, -2249.8228360442445, -0.03200000151991844, 0.01600000075995922, -0.9920000471174717, 0.0, 0.0, 0.0, 0.0, 0.0, 1.7011970568993294E9, 0.0, 2023-11-28 16:44:16.899
55.0, -1246.8265467276797, -2107.9890001746826, -1353.8886627592146, -2101.808815497905, -0.03200000151991844, 0.01600000075995922, -0.9920000471174717, 0.0, 0.0, 0.0, 0.0, 0.0, 1.7011970569129922E9, 0.0, 2023-11-28 16:44:16.912
55.0, -1229.0059234388173, -2058.83549505705, -1243.7934878636152, -1986.5563185634091, -0.03200000151991844, 0.01600000075995922, -0.9920000471174717, 0.0, 0.0, 0.0, 0.0, 0.0, 1.7011970569129922E9, 0.0, 2023-11-28 16:44:16.912
56.0, -1292.8908944819123, -2132.7620974811725, -1447.2552651530132, -2197.8644059598446, -0.03200000151991844, 0.01600000075995922, -0.9920000471174717, 0.0, 0.0, 0.0, 0.0, 0.0, 1.7011970569287057E9, 0.0, 2023-11-28 16:44:16.928
56.0, -1260.4285628665239, -2131.789723492693, -1419.9203363768756, -2162.705606476404, -0.03200000151991844, 0.01600000075995922, -0.9920000471174717, 0.0, 0.0, 0.0, 0.0, 0.0, 1.7011970569287057E9, 0.0, 2023-11-28 16:44:16.928
57.0, -1225.535296279937, -2060.080881742295, -1244.8705790508538, -1981.9300623182207, -0.03200000151991844, 0.01600000075995922, -0.9920000471174717, 0.0, 0.0, 0.0, 0.0, 0.0, 1.7011970569293897E9, 0.0, 2023-11-28 16:44:16.929
57.0, -1271.3154116375372, -2103.355264129583, -1369.356888975948, -2120.0258681820706, -0.03200000151991844, 0.01600000075995922, -0.9920000471174717, 0.0, 0.0, 0.0, 0.0, 0.0, 1.7011970569293897E9, 0.0, 2023-11-28 16:44:16.929
58.0, -1271.0498787406832, -2144.8232748382725, -1472.6529257521033, -2227.7050677062944, -0.03200000151991844, 0.01600000075995922, -0.9920000471174717, 0.0, 0.0, 0.0, 0.0, 0.0, 1.701197056942937E9, 0.0, 2023-11-28 16:44:16.942
58.0, -1218.6651000613347, -2078.3353334260173, -1272.534619023092, -2013.958565538749, -0.03200000151991844, 0.01600000075995922, -0.9920000471174717, 0.0, 0.0, 0.0, 0.0, 0.0, 1.701197056942937E9, 0.0, 2023-11-28 16:44:16.942
59.0, -1248.7862543044612, -2072.1009201998822, -1294.0427836682647, -2041.0877998173237, -0.03200000151991844, 0.01600000075995922, -0.9920000471174717, 0.0, 0.0, 0.0, 0.0, 0.0, 1.7011970569586546E9, 0.0, 2023-11-28 16:44:16.958
59.0, -1288.1524412380531, -2146.782982415054, -1483.102206228301, -2228.9953331910074, -0.03200000151991844, 0.01600000075995922, -0.9920000471174717, 0.0, 0.0, 0.0, 0.0, 0.0, 1.7011970569586546E9, 0.0, 2023-11-28 16:44:16.958
60.0, -1240.453757203184, -2108.2433133716695, -1331.0603134296834, -2088.8949409509078, -0.03200000151991844, 0.01600000075995922, -0.9760000463575125, 0.0, 0.0, 0.0, 0.0, 0.0, 1.7011970569593751E9, 0.0, 2023-11-28 16:44:16.959
60.0, -1232.2820758000016, -2058.981351155322, -1235.7901019584388, -1989.3275844305754, -0.03200000151991844, 0.01600000075995922, -0.9760000463575125, 0.0, 0.0, 0.0, 0.0, 0.0, 1.7011970569593751E9, 0.0, 2023-11-28 16:44:16.959
61.0, -1296.9636455336586, -2138.1662529171444, -1437.7858384652063, -2200.635671827011, -0.03200000151991844, 0.03200000151991844, -0.9760000463575125, 0.0, 0.0, 0.0, 0.0, 0.0, 1.7011970569729872E9, 0.0, 2023-11-28 16:44:16.972
61.0, -1260.3799441671, -2136.9620051314123, -1427.2468003900722, -2171.4158334732056, -0.03200000151991844, 0.03200000151991844, -0.9760000463575125, 0.0, 0.0, 0.0, 0.0, 0.0, 1.7011970569729872E9, 0.0, 2023-11-28 16:44:16.972
62.0, -1235.1580588659272, -2069.3745331321843, -1241.478489791043, -1991.2536329077557, -0.03200000151991844, 0.03200000151991844, -0.9760000463575125, 0.0, 0.0, 0.0, 0.0, 0.0, 1.7011970569886312E9, 0.0, 2023-11-28 16:44:16.988
62.0, -1277.2730722669512, -2111.9345946279354, -1378.9983510617167, -2131.649477244355, -0.03200000151991844, 0.03200000151991844, -0.9760000463575125, 0.0, 0.0, 0.0, 0.0, 0.0, 1.7011970569886312E9, 0.0, 2023-11-28 16:44:16.988
63.0, -1293.208785978146, -2161.7799812373705, -1489.5273543521762, -2236.658388200216, -0.03200000151991844, 0.03200000151991844, -0.9760000463575125, 0.0, 0.0, 0.0, 0.0, 0.0, 1.7011970569893491E9, 0.0, 2023-11-28 16:44:16.989
63.0, -1242.3498864807189, -2098.1829824908637, -1287.224946049042, -2028.3459606682882, -0.03200000151991844, 0.03200000151991844, -0.9760000463575125, 0.0, 0.0, 0.0, 0.0, 0.0, 1.7011970569893491E9, 0.0, 2023-11-28 16:44:16.989
64.0, -1263.3269853321835, -2095.2434211256914, -1299.828408899717, -2051.06959279906, -0.03200000151991844, 0.03200000151991844, -0.9760000463575125, 0.0, 0.0, 0.0, 0.0, 0.0, 1.7011970570030353E9, 0.0, 2023-11-28 16:44:17.003
64.0, -1298.3511484172195, -2169.7272686432116, -1495.1110249860212, -2247.6985728694126, -0.03200000151991844, 0.03200000151991844, -0.9760000463575125, 0.0, 0.0, 0.0, 0.0, 0.0, 1.7011970570030353E9, 0.0, 2023-11-28 16:44:17.003
65.0, -1250.8058002805337, -2109.211947460193, -1354.2888320544735, -2092.8180960044265, -0.03200000151991844, 0.03200000151991844, -0.9760000463575125, 0.0, 0.0, 0.0, 0.0, 0.0, 1.7011970570186293E9, 0.0, 2023-11-28 16:44:17.018
65.0, -1241.5981665896252, -2069.4306316315196, -1254.5943189356476, -1988.2392735434696, -0.03200000151991844, 0.03200000151991844, -0.9760000463575125, 0.0, 0.0, 0.0, 0.0, 0.0, 1.7011970570186293E9, 0.0, 2023-11-28 16:44:17.018
66.0, -1292.4795054867864, -2145.4253987311386, -1437.9279546635225, -2192.538788422942, -0.03200000151991844, 0.03200000151991844, -0.9760000463575125, 0.0, 0.0, 0.0, 0.0, 0.0, 1.7011970570194547E9, 0.0, 2023-11-28 16:44:17.019
66.0, -1268.966754465364, -2151.9889231533743, -1422.3063925486058, -2179.4715779777616, -0.03200000151991844, 0.03200000151991844, -0.9760000463575125, 0.0, 0.0, 0.0, 0.0, 0.0, 1.7011970570194547E9, 0.0, 2023-11-28 16:44:17.019
67.0, -1224.993010786362, -2075.406991760712, -1227.0088168624789, -1976.7390811797231, -0.03200000151991844, 0.03200000151991844, -0.9760000463575125, 0.0, 0.0, 0.0, 0.0, 0.0, 1.701197057032966E9, 0.0, 2023-11-28 16:44:17.032
67.0, -1281.6150961155072, -2121.587276413571, -1381.5340032316744, -2128.4780420819297, -0.03200000151991844, 0.03200000151991844, -0.9760000463575125, 0.0, 0.0, 0.0, 0.0, 0.0, 1.701197057032966E9, 0.0, 2023-11-28 16:44:17.032
68.0, -1285.272718272172, -2164.3979112063535, -1479.7400361681357, -2235.981466308236, -0.03200000151991844, 0.03200000151991844, -0.9760000463575125, 0.0, 0.0, 0.0, 0.0, 0.0, 1.7011970570486424E9, 0.0, 2023-11-28 16:44:17.048
68.0, -1230.3261081231758, -2086.8099467256106, -1280.882075724192, -2025.0698083071038, -0.03200000151991844, 0.03200000151991844, -0.9760000463575125, 0.0, 0.0, 0.0, 0.0, 0.0, 1.7011970570486424E9, 0.0, 2023-11-28 16:44:17.048
69.0, -1260.2527875686064, -2092.7451679552905, -1303.1531799603254, -2052.782466978766, -0.03200000151991844, 0.03200000151991844, -0.9760000463575125, 0.0, 0.0, 0.0, 0.0, 0.0, 1.701197057049368E9, 0.0, 2023-11-28 16:44:17.049
69.0, -1305.8309483285993, -2168.8932709530927, -1488.5026217643172, -2241.0191115485504, -0.03200000151991844, 0.03200000151991844, -0.9760000463575125, 0.0, 0.0, 0.0, 0.0, 0.0, 1.701197057049368E9, 0.0, 2023-11-28 16:44:17.049
70.0, -1251.5911792712286, -2116.3027977761813, -1346.5921179456636, -2091.7933634165674, -0.03200000151991844, 0.03200000151991844, -0.9760000463575125, 0.0, 0.0, 0.0, 0.0, 0.0, 1.701197057063104E9, 0.0, 2023-11-28 16:44:17.063
70.0, -1248.5693401070312, -2061.659119523596, -1247.9185975147411, -1997.6039830325171, -0.03200000151991844, 0.03200000151991844, -0.9760000463575125, 0.0, 0.0, 0.0, 0.0, 0.0, 1.701197057063104E9, 0.0, 2023-11-28 16:44:17.063
71.0, -1297.6181280259043, -2147.504783106502, -1450.2397053176537, -2202.1839904086664, -0.03200000151991844, 0.03200000151991844, -0.9760000463575125, 0.0, 0.0, 0.0, 0.0, 0.0, 1.7011970570786412E9, 0.0, 2023-11-28 16:44:17.078
71.0, -1273.200321215205, -2144.830754638184, -1441.3873621225357, -2178.8731939848512, -0.03200000151991844, 0.03200000151991844, -0.9760000463575125, 0.0, 0.0, 0.0, 0.0, 0.0, 1.7011970570786412E9, 0.0, 2023-11-28 16:44:17.078
72.0, -1240.550994602032, -2075.302274561953, -1251.7931338688359, -1993.1123631857336, -0.03200000151991844, 0.03200000151991844, -0.9760000463575125, 0.0, 0.0, 0.0, 0.0, 0.0, 1.7011970570793824E9, 0.0, 2023-11-28 16:44:17.079
72.0, -1288.4291938347742, -2123.8873148863204, -1388.7931490456685, -2129.2783806724474, -0.03200000151991844, 0.03200000151991844, -0.9760000463575125, 0.0, 0.0, 0.0, 0.0, 0.0, 1.7011970570793824E9, 0.0, 2023-11-28 16:44:17.079
73.0, -1298.2763504181057, -2165.9649292877875, -1496.6069849682972, -2241.1649676468223, -0.03200000151991844, 0.03200000151991844, -0.9760000463575125, 0.0, 0.0, 0.0, 0.0, 0.0, 1.7011970571093636E9, 0.0, 2023-11-28 16:44:17.109
73.0, -1244.9827760495245, -2088.9940482997335, -1279.326277342625, -2016.4642985090613, -0.03200000151991844, 0.03200000151991844, -0.9760000463575125, 0.0, 0.0, 0.0, 0.0, 0.0, 1.7011970571093636E9, 0.0, 2023-11-28 16:44:17.109
74.0, -1271.54728543479, -2097.5210201987065, -1303.5346497558057, -2049.659650515765, -0.03200000151991844, 0.03200000151991844, -0.9760000463575125, 0.0, 0.0, 0.0, 0.0, 0.0, 1.7011970571100707E9, 0.0, 2023-11-28 16:44:17.110
74.0, -1313.6660387357697, -2174.2749869893305, -1486.067946893163, -2242.892801426351, -0.03200000151991844, 0.03200000151991844, -0.9760000463575125, 0.0, 0.0, 0.0, 0.0, 0.0, 1.7011970571100707E9, 0.0, 2023-11-28 16:44:17.110
75.0, -1252.7019295580685, -2125.013024772983, -1357.8828759118915, -2097.6911856466904, -0.03200000151991844, 0.03200000151991844, -0.9760000463575125, 0.0, 0.0, 0.0, 0.0, 0.0, 1.701197057110833E9, 0.0, 2023-11-28 16:44:17.110
75.0, -1241.7066236883402, -2076.962790142279, -1243.0155886728317, -1990.2064609201625, -0.03200000151991844, 0.03200000151991844, -0.9760000463575125, 0.0, 0.0, 0.0, 0.0, 0.0, 1.701197057110833E9, 0.0, 2023-11-28 16:44:17.110
76.0, -1297.019744032994, -2147.8376342025585, -1455.3820677567273, -2197.46049676463, -0.03200000151991844, 0.03200000151991844, -0.9760000463575125, 0.0, 0.0, 0.0, 0.0, 0.0, 1.7011970571230533E9, 0.0, 2023-11-28 16:44:17.123
76.0, -1270.0326259527355, -2145.40669923136, -1424.041706128046, -2177.631547199562, -0.03200000151991844, 0.03200000151991844, -0.9760000463575125, 0.0, 0.0, 0.0, 0.0, 0.0, 1.7011970571230533E9, 0.0, 2023-11-28 16:44:17.123
77.0, -1232.4840303976089, -2068.596633941401, -1236.197751053609, -1983.1978884031996, -0.03200000151991844, 0.03200000151991844, -0.9760000463575125, 0.0, 0.0, 0.0, 0.0, 0.0, 1.7011970571386576E9, 0.0, 2023-11-28 16:44:17.138
77.0, -1285.77760476619, -2116.7067069713958, -1375.6810598010197, -2128.6388577800244, -0.03200000151991844, 0.03200000151991844, -0.9760000463575125, 0.0, 0.0, 0.0, 0.0, 0.0, 1.7011970571386576E9, 0.0, 2023-11-28 16:44:17.138
78.0, -1286.8920949529856, -2161.409731141757, -1487.7621215730906, -2237.33157019224, -0.03200000151991844, 0.03200000151991844, -0.9760000463575125, 0.0, 0.0, 0.0, 0.0, 0.0, 1.7011970571394048E9, 0.0, 2023-11-28 16:44:17.139
78.0, -1239.8703328100964, -2096.5299467104487, -1287.8382896417752, -2023.9253989206627, -0.03200000151991844, 0.03200000151991844, -0.9760000463575125, 0.0, 0.0, 0.0, 0.0, 0.0, 1.7011970571394048E9, 0.0, 2023-11-28 16:44:17.139
79.0, -1268.6862619686872, -2094.345845136326, -1311.2313638646156, -2047.367091842927, -0.03200000151991844, 0.03200000151991844, -0.9760000463575125, 0.0, 0.0, 0.0, 0.0, 0.0, 1.7011970571530268E9, 0.0, 2023-11-28 16:44:17.153
79.0, -1307.667239206843, -2168.119111662265, -1494.0376736987382, -2243.158334323205, -0.03200000151991844, 0.03200000151991844, -0.9760000463575125, 0.0, 0.0, 0.0, 0.0, 0.0, 1.7011970571530268E9, 0.0, 2023-11-28 16:44:17.153
80.0, -1252.369078462012, -2118.053070955444, -1358.2606058074161, -2097.9828978432342, -0.03200000151991844, 0.03200000151991844, -0.9760000463575125, 0.0, 0.0, 0.0, 0.0, 0.0, 1.701197057168661E9, 0.0, 2023-11-28 16:44:17.168
80.0, -1241.8375201867893, -2073.2939482857473, -1252.612171959132, -1992.1325093973428, -0.03200000151991844, 0.03200000151991844, -0.9760000463575125, 0.0, 0.0, 0.0, 0.0, 0.0, 1.701197057168661E9, 0.0, 2023-11-28 16:44:17.168
81.0, -1305.5504558319226, -2154.0383883290924, -1454.1703401710838, -2198.219696455635, -0.03200000151991844, 0.03200000151991844, -0.9760000463575125, 0.0, 0.0, 0.0, 0.0, 0.0, 1.7011970571694305E9, 0.0, 2023-11-28 16:44:17.169
81.0, -1269.0116332648322, -2148.8773263902403, -1424.0192667283118, -2174.3740943381563, -0.03200000151991844, 0.03200000151991844, -0.9760000463575125, 0.0, 0.0, 0.0, 0.0, 0.0, 1.7011970571694305E9, 0.0, 2023-11-28 16:44:17.169
82.0, -1231.3097018115222, -2069.1538790347986, -1234.5035763736814, -1976.331432084553, -0.03200000151991844, 0.03200000151991844, -0.9760000463575125, 0.0, 0.0, 0.0, 0.0, 0.0, 1.701197057183046E9, 0.0, 2023-11-28 16:44:17.183
82.0, -1292.5767428856343, -2128.3377958335914, -1363.5151652451605, -2113.4997427593917, -0.03200000151991844, 0.03200000151991844, -0.9760000463575125, 0.0, 0.0, 0.0, 0.0, 0.0, 1.701197057183046E9, 0.0, 2023-11-28 16:44:17.183
83.0, -1288.661067632027, -2158.1747176800855, -1462.4280392732471, -2223.12743016053, -0.03200000151991844, 0.03200000151991844, -0.9760000463575125, 0.0, 0.0, 0.0, 0.0, 0.0, 1.701197057198654E9, 0.0, 2023-11-28 16:44:17.198
83.0, -1236.9120719451457, -2088.86689170124, -1277.8078779606149, -2023.8992196209729, -0.03200000151991844, 0.03200000151991844, -0.9760000463575125, 0.0, 0.0, 0.0, 0.0, 0.0, 1.701197057198654E9, 0.0, 2023-11-28 16:44:17.198
84.0, -1258.37535779085, -2083.017688170541, -1298.1828529192135, -2042.9016512958333, -0.03200000151991844, 0.03200000151991844, -0.9760000463575125, 0.0, 0.0, 0.0, 0.0, 0.0, 1.7011970571994472E9, 0.0, 2023-11-28 16:44:17.199
84.0, -1304.1143342489377, -2163.8892848123796, -1490.7690011374652, -2237.537264689803, -0.03200000151991844, 0.03200000151991844, -0.9760000463575125, 0.0, 0.0, 0.0, 0.0, 0.0, 1.7011970571994472E9, 0.0, 2023-11-28 16:44:17.199
85.0, -1253.203076152131, -2117.6117627606727, -1350.7583664963022, -2093.9064068915322, -0.03200000151991844, 0.03200000151991844, -0.9760000463575125, 0.0, 0.0, 0.0, 0.0, 0.0, 1.7011970572458415E9, 0.0, 2023-11-28 16:44:17.245
85.0, -1250.4093708852306, -2071.3267609090544, -1263.4616217305884, -1995.1431288616732, -0.03200000151991844, 0.03200000151991844, -0.9760000463575125, 0.0, 0.0, 0.0, 0.0, 0.0, 1.7011970572458415E9, 0.0, 2023-11-28 16:44:17.245
86.0, -1304.3349883463234, -2152.280635349918, -1465.9659846313298, -2207.6330246441066, -0.03200000151991844, 0.03200000151991844, -0.9760000463575125, 0.0, 0.0, 0.0, 0.0, 0.0, 1.7011970572464664E9, 0.0, 2023-11-28 16:44:17.246
86.0, -1272.9198287185282, -2144.9728708365, -1440.8450766289607, -2185.0328092118725, -0.03200000151991844, 0.03200000151991844, -0.9760000463575125, 0.0, 0.0, 0.0, 0.0, 0.0, 1.7011970572464664E9, 0.0, 2023-11-28 16:44:17.246
87.0, -1239.5000827144831, -2076.072693952825, -1239.9563505090773, -1990.9394813114777, -0.03200000151991844, 0.03200000151991844, -0.9760000463575125, 0.0, 0.0, 0.0, 0.0, 0.0, 1.7011970572471416E9, 0.0, 2023-11-28 16:44:17.247
87.0, -1290.3889014115557, -2119.287237940822, -1379.6004749545828, -2131.8102929424495, -0.03200000151991844, 0.03200000151991844, -0.9760000463575125, 0.0, 0.0, 0.0, 0.0, 0.0, 1.7011970572471416E9, 0.0, 2023-11-28 16:44:17.247
88.0, -1303.2504173591733, -2169.4654756463133, -1496.779020366259, -2245.2264989987016, -0.03200000151991844, 0.03200000151991844, -0.9760000463575125, 0.0, 0.0, 0.0, 0.0, 0.0, 1.7011970572478964E9, 0.0, 2023-11-28 16:44:17.247
88.0, -1235.1057002665475, -2091.4773418703116, -1283.0437378985807, -2027.0182961840183, -0.03200000151991844, 0.03200000151991844, -0.9760000463575125, 0.0, 0.0, 0.0, 0.0, 0.0, 1.7011970572478964E9, 0.0, 2023-11-28 16:44:17.247
89.0, -1260.451002266258, -2087.6439444157295, -1301.2832299824804, -2050.1233981102705, -0.03200000151991844, 0.03200000151991844, -0.9760000463575125, 0.0, 0.0, 0.0, 0.0, 0.0, 1.7011970572587433E9, 0.0, 2023-11-28 16:44:17.258
89.0, -1303.9310791511089, -2164.3754718066193, -1493.0204209107906, -2244.9609661018476, -0.03200000151991844, 0.03200000151991844, -0.9760000463575125, 0.0, 0.0, 0.0, 0.0, 0.0, 1.7011970572587433E9, 0.0, 2023-11-28 16:44:17.258
90.0, -1250.5028683841228, -2115.7904314822517, -1349.5690783103928, -2097.971678143367, -0.03200000151991844, 0.03200000151991844, -0.9920000471174717, 0.0, 0.0, 0.0, 0.0, 0.0, 1.701197057259312E9, 0.0, 2023-11-28 16:44:17.259
90.0, -1241.9571969853714, -2072.706783992704, -1239.8553732102737, -1987.244460155256, -0.03200000151991844, 0.03200000151991844, -0.9920000471174717, 0.0, 0.0, 0.0, 0.0, 0.0, 1.701197057259312E9, 0.0, 2023-11-28 16:44:17.259
91.0, -1299.9069467987865, -2146.5473687178455, -1455.7373582525179, -2192.542528322898, -0.03200000151991844, 0.03200000151991844, -0.9920000471174717, 0.0, 0.0, 0.0, 0.0, 0.0, 1.7011970572729304E9, 0.0, 2023-11-28 16:44:17.272
91.0, -1276.2333800792694, -2146.8390809143893, -1424.7672467194498, -2171.3447753740475, -0.03200000151991844, 0.03200000151991844, -0.9920000471174717, 0.0, 0.0, 0.0, 0.0, 0.0, 1.7011970572729304E9, 0.0, 2023-11-28 16:44:17.272
92.0, -1239.4851231146604, -2076.749615844805, -1233.314288187772, -1974.8279923023656, -0.03200000151991844, 0.03200000151991844, -0.9920000471174717, 0.0, 0.0, 0.0, 0.0, 0.0, 1.7011970572890704E9, 0.0, 2023-11-28 16:44:17.289
92.0, -1293.6313946731389, -2129.912293714937, -1370.8565888581797, -2129.9253833647817, -0.03200000151991844, 0.03200000151991844, -0.9920000471174717, 0.0, 0.0, 0.0, 0.0, 0.0, 1.7011970572890704E9, 0.0, 2023-11-28 16:44:17.289
93.0, -1295.4676855513826, -2170.7071224316023, -1479.4782431712374, -2238.3263835804537, -0.03200000151991844, 0.03200000151991844, -0.9920000471174717, 0.0, 0.0, 0.0, 0.0, 0.0, 1.7011970572893562E9, 0.0, 2023-11-28 16:44:17.289
93.0, -1235.6330261602998, -2091.5633595692925, -1271.7679395321757, -2020.6716859592125, -0.03200000151991844, 0.03200000151991844, -0.9920000471174717, 0.0, 0.0, 0.0, 0.0, 0.0, 1.7011970572893562E9, 0.0, 2023-11-28 16:44:17.289
94.0, -1274.6626220978796, -2093.870877841953, -1303.4785512564704, -2049.3267994197085, -0.03200000151991844, 0.03200000151991844, -0.9920000471174717, 0.0, 0.0, 0.0, 0.0, 0.0, 1.701197057303026E9, 0.0, 2023-11-28 16:44:17.303
94.0, -1313.6435993360355, -2168.8147330540232, -1504.94322196953, -2242.8778418265283, -0.03200000151991844, 0.03200000151991844, -0.9920000471174717, 0.0, 0.0, 0.0, 0.0, 0.0, 1.701197057303026E9, 0.0, 2023-11-28 16:44:17.303
95.0, -1248.6403982061893, -2120.41668772744, -1368.9941186802462, -2096.3747408622876, -0.03200000151991844, 0.03200000151991844, -0.9920000471174717, 0.0, 0.0, 0.0, 0.0, 0.0, 1.701197057319006E9, 0.0, 2023-11-28 16:44:17.319
95.0, -1241.684184288606, -2075.459350360092, -1258.2407213924453, -1988.908715635538, -0.03200000151991844, 0.03200000151991844, -0.9920000471174717, 0.0, 0.0, 0.0, 0.0, 0.0, 1.701197057319006E9, 0.0, 2023-11-28 16:44:17.319
96.0, -1293.1900864783674, -2143.731224051211, -1450.0265310201794, -2195.1641981918365, -0.03200000151991844, 0.03200000151991844, -0.9920000471174717, 0.0, 0.0, 0.0, 0.0, 0.0, 1.7011970573193717E9, 0.0, 2023-11-28 16:44:17.319
96.0, -1266.0271931001917, -2140.9001197847538, -1439.1097630495206, -2181.4238057546318, -0.03200000151991844, 0.03200000151991844, -0.9920000471174717, 0.0, 0.0, 0.0, 0.0, 0.0, 1.7011970573193717E9, 0.0, 2023-11-28 16:44:17.319
97.0, -1226.3505944702774, -2068.304921744857, -1237.162645242177, -1981.9225825183094, -0.03200000151991844, 0.03200000151991844, -0.9920000471174717, 0.0, 0.0, 0.0, 0.0, 0.0, 1.701197057332998E9, 0.0, 2023-11-28 16:44:17.332
97.0, -1278.0434916578233, -2115.0910701905377, -1366.5781433088705, -2125.1495311213657, -0.03200000151991844, 0.03200000151991844, -0.9920000471174717, 0.0, 0.0, 0.0, 0.0, 0.0, 1.701197057332998E9, 0.0, 2023-11-28 16:44:17.332
98.0, -1289.8353962181136, -2154.199204027187, -1480.2150034625083, -2237.7392192874104, -0.03200000151991844, 0.03200000151991844, -0.9920000471174717, 0.0, 0.0, 0.0, 0.0, 0.0, 1.7011970573486888E9, 0.0, 2023-11-28 16:44:17.348
98.0, -1236.47450365033, -2088.3807047070004, -1275.672395085916, -2028.0692080715671, -0.03200000151991844, 0.03200000151991844, -0.9920000471174717, 0.0, 0.0, 0.0, 0.0, 0.0, 1.7011970573486888E9, 0.0, 2023-11-28 16:44:17.348
99.0, -1278.7802519490942, -2096.283113313373, -1312.5814677486196, -2048.5937790283933, -0.03200000151991844, 0.03200000151991844, -0.9920000471174717, 0.0, 0.0, 0.0, 0.0, 0.0, 1.701197057349377E9, 0.0, 2023-11-28 16:44:17.349
99.0, -1313.722137235105, -2171.0773725272156, -1494.0862923981622, -2249.2655909508467, -0.03200000151991844, 0.03200000151991844, -0.9920000471174717, 0.0, 0.0, 0.0, 0.0, 0.0, 1.701197057349377E9, 0.0, 2023-11-28 16:44:17.349
100.0, -1259.545946476981, -2125.951739661861, -1358.6570352027193, -2104.7820359626785, -0.03200000151991844, 0.03200000151991844, -0.9760000463575125, 0.0, 0.0, 0.0, 0.0, 0.0, 1.7011970573636532E9, 0.0, 2023-11-28 16:44:17.363
100.0, -1249.788547492586, -2081.114079093095, -1252.672010358423, -1988.7852989370003, -0.03200000151991844, 0.03200000151991844, -0.9760000463575125, 0.0, 0.0, 0.0, 0.0, 0.0, 1.7011970573636532E9, 0.0, 2023-11-28 16:44:17.363
0.0, -1310.778835969977, -2154.756449120585, -1462.018520228099, -2204.553217030596, -0.03200000151991844, 0.03200000151991844, -0.9760000463575125, 0.0, 0.0, 0.0, 0.0, 0.0, 1.7011970573644173E9, 0.0, 2023-11-28 16:44:17.364
1.0, -1279.7526259375736, -2148.3686999962665, -1439.8783124904148, -2180.285006218124, -0.03200000151991844, 0.03200000151991844, -0.9760000463575125, 0.0, 0.0, 0.0, 0.0, 0.0, 1.7011970573779807E9, 0.0, 2023-11-28 16:44:17.377
1.0, -1233.1759118894115, -2077.553694335278, -1247.8194901659153, -1984.9687310322188, -0.03200000151991844, 0.03200000151991844, -0.9760000463575125, 0.0, 0.0, 0.0, 0.0, 0.0, 1.7011970573779807E9, 0.0, 2023-11-28 16:44:17.377
2.0, -1289.8653154177591, -2120.828076722566, -1394.8125180243514, -2125.5590501665138, -0.03200000151991844, 0.03200000151991844, -0.9760000463575125, 0.0, 0.0, 0.0, 0.0, 0.0, 1.7011970573936536E9, 0.0, 2023-11-28 16:44:17.393
2.0, -1308.1085474016145, -2173.2951332009397, -1500.5581892714836, -2240.153324708808, -0.03200000151991844, 0.03200000151991844, -0.9760000463575125, 0.0, 0.0, 0.0, 0.0, 0.0, 1.7011970573936536E9, 0.0, 2023-11-28 16:44:17.393
3.0, -1241.9459772855043, -2085.609438839834, -1294.3027067151852, -2026.032832545694, -0.03200000151991844, 0.03200000151991844, -0.9760000463575125, 0.0, 0.0, 0.0, 0.0, 0.0, 1.7011970573944256E9, 0.0, 2023-11-28 16:44:17.394
3.0, -1274.6962811974809, -2093.489408046473, -1315.7098940615542, -2058.147353465203, -0.03200000151991844, 0.03200000151991844, -0.9760000463575125, 0.0, 0.0, 0.0, 0.0, 0.0, 1.7011970573944256E9, 0.0, 2023-11-28 16:44:17.394
4.0, -1313.6435993360355, -2169.2485614488833, -1496.7397514167242, -2259.791539376136, -0.03200000151991844, 0.03200000151991844, -0.9760000463575125, 0.0, 0.0, 0.0, 0.0, 0.0, 1.7011970574080207E9, 0.0, 2023-11-28 16:44:17.408
4.0, -1258.0088475951925, -2113.5726708085276, -1358.202637358103, -2107.9777804748155, -0.03200000151991844, 0.03200000151991844, -0.9760000463575125, 0.0, 0.0, 0.0, 0.0, 0.0, 1.7011970574080207E9, 0.0, 2023-11-28 16:44:17.408
5.0, -1245.2632685462013, -2074.3785192728974, -1238.0246921819635, -1989.6473458767869, -0.03200000151991844, 0.03200000151991844, -0.9760000463575125, 0.0, 0.0, 0.0, 0.0, 0.0, 1.7011970574236624E9, 0.0, 2023-11-28 16:44:17.423
5.0, -1308.175865600817, -2153.888792330865, -1448.753095085267, -2199.923220885452, -0.03200000151991844, 0.03200000151991844, -0.9760000463575125, 0.0, 0.0, 0.0, 0.0, 0.0, 1.7011970574236624E9, 0.0, 2023-11-28 16:44:17.423
6.0, -1276.4054154772311, -2147.7403968037106, -1425.6891320585273, -2179.1742559312843, -0.03200000151991844, 0.03200000151991844, -0.9760000463575125, 0.0, 0.0, 0.0, 0.0, 0.0, 1.7011970574243596E9, 0.0, 2023-11-28 16:44:17.424
6.0, -1244.0702404603362, -2079.7190964096226, -1245.627908791881, -1985.0173497316428, -0.03200000151991844, 0.03200000151991844, -0.9760000463575125, 0.0, 0.0, 0.0, 0.0, 0.0, 1.7011970574243596E9, 0.0, 2023-11-28 16:44:17.424
7.0, -1289.8877548174933, -2118.92446764512, -1371.5316408001818, -2123.8125168872066, -0.03200000151991844, 0.03200000151991844, -0.9760000463575125, 0.0, 0.0, 0.0, 0.0, 0.0, 1.7011970574543853E9, 0.0, 2023-11-28 16:44:17.454
7.0, -1298.2800903180614, -2164.2034364086576, -1485.056303955149, -2232.400512100663, -0.03200000151991844, 0.03200000151991844, -0.9760000463575125, 0.0, 0.0, 0.0, 0.0, 0.0, 1.7011970574543853E9, 0.0, 2023-11-28 16:44:17.454
8.0, -1234.7765890704468, -2089.820566189941, -1272.9067390686832, -2019.050439328421, -0.03200000151991844, 0.03200000151991844, -0.9760000463575125, 0.0, 0.0, 0.0, 0.0, 0.0, 1.7011970574550683E9, 0.0, 2023-11-28 16:44:17.455
8.0, -1260.005954171531, -2086.985722023528, -1300.8811907372437, -2044.3209433290176, -0.03200000151991844, 0.03200000151991844, -0.9760000463575125, 0.0, 0.0, 0.0, 0.0, 0.0, 1.7011970574550683E9, 0.0, 2023-11-28 16:44:17.455
9.0, -1308.2057848004624, -2169.9180035409518, -1483.2686317763291, -2242.0344943865202, -0.03200000151991844, 0.03200000151991844, -0.9760000463575125, 0.0, 0.0, 0.0, 0.0, 0.0, 1.7011970574558427E9, 0.0, 2023-11-28 16:44:17.455
9.0, -1262.4593285424635, -2121.5685769137926, -1353.0827143187635, -2102.076218344737, -0.03200000151991844, 0.03200000151991844, -0.9760000463575125, 0.0, 0.0, 0.0, 0.0, 0.0, 1.7011970574558427E9, 0.0, 2023-11-28 16:44:17.455
10.0, -1243.6775509649888, -2072.5684076943435, -1247.9616063642316, -1985.365160427522, -0.03200000151991844, 0.03200000151991844, -0.9760000463575125, 0.0, 0.0, 0.0, 0.0, 0.0, 1.701197057467971E9, 0.0, 2023-11-28 16:44:17.467
10.0, -1304.2340110475197, -2143.7387038511224, -1452.1713636447676, -2202.260658357758, -0.03200000151991844, 0.03200000151991844, -0.9760000463575125, 0.0, 0.0, 0.0, 0.0, 0.0, 1.701197057467971E9, 0.0, 2023-11-28 16:44:17.467
11.0, -1273.260159614496, -2139.3144022035412, -1427.8096553334035, -2177.453901951667, -0.03200000151991844, 0.01600000075995922, -0.9760000463575125, 0.0, 0.0, 0.0, 0.0, 0.0, 1.7011970574836788E9, 0.0, 2023-11-28 16:44:17.483
11.0, -1229.9221989279613, -2074.6066531701945, -1236.8316640960984, -1982.1002277662046, -0.03200000151991844, 0.01600000075995922, -0.9760000463575125, 0.0, 0.0, 0.0, 0.0, 0.0, 1.7011970574836788E9, 0.0, 2023-11-28 16:44:17.483
12.0, -1288.515211533755, -2116.8039443702437, -1384.6287704450078, -2130.185306411702, -0.01600000075995922, 0.01600000075995922, -0.9760000463575125, 0.0, 0.0, 0.0, 0.0, 0.0, 1.7011970574843874E9, 0.0, 2023-11-28 16:44:17.484
12.0, -1292.3860079878941, -2159.794094360899, -1488.5680700135417, -2239.117372421082, -0.01600000075995922, 0.01600000075995922, -0.9760000463575125, 0.0, 0.0, 0.0, 0.0, 0.0, 1.7011970574843874E9, 0.0, 2023-11-28 16:44:17.484
13.0, -1235.1505790660158, -2088.89307100093, -1283.2550422460772, -2030.722667090129, -0.01600000075995922, 0.01600000075995922, -0.9760000463575125, 0.0, 0.0, 0.0, 0.0, 0.0, 1.70119705749797E9, 0.0, 2023-11-28 16:44:17.497
13.0, -1267.0930645875633, -2099.8397581712343, -1309.8494708309881, -2048.539550479036, -0.01600000075995922, 0.01600000075995922, -0.9760000463575125, 0.0, 0.0, 0.0, 0.0, 0.0, 1.70119705749797E9, 0.0, 2023-11-28 16:44:17.497
14.0, -1307.5213831085712, -2166.87372497702, -1504.062475529965, -2247.5770261208527, -0.01600000075995922, 0.01600000075995922, -0.9760000463575125, 0.0, 0.0, 0.0, 0.0, 0.0, 1.701197057513956E9, 0.0, 2023-11-28 16:44:17.513
14.0, -1257.9153500963002, -2126.796957051847, -1351.8261079336517, -2106.64637609059, -0.01600000075995922, 0.01600000075995922, -0.9760000463575125, 0.0, 0.0, 0.0, 0.0, 0.0, 1.701197057513956E9, 0.0, 2023-11-28 16:44:17.513
15.0, -1241.7103635882959, -2079.86869240785, -1246.9368737763725, -1991.4686771552078, -0.01600000075995922, 0.01600000075995922, -0.9760000463575125, 0.0, 0.0, 0.0, 0.0, 0.0, 1.7011970575143912E9, 0.0, 2023-11-28 16:44:17.514
15.0, -1316.5345420017838, -2167.636664567981, -1463.817412106786, -2210.2266452633776, -0.01600000075995922, 0.01600000075995922, -0.9760000463575125, 0.0, 0.0, 0.0, 0.0, 0.0, 1.7011970575143912E9, 0.0, 2023-11-28 16:44:17.514
16.0, -1280.2275932319462, -2159.277988167014, -1439.261228997726, -2184.5148330680095, -0.01600000075995922, 0.01600000075995922, -0.9760000463575125, 0.0, 0.0, 0.0, 0.0, 0.0, 1.7011970575279987E9, 0.0, 2023-11-28 16:44:17.527
16.0, -1244.3208137573674, -2084.274294555653, -1242.6060696276836, -1982.3433212633245, -0.01600000075995922, 0.01600000075995922, -0.9760000463575125, 0.0, 0.0, 0.0, 0.0, 0.0, 1.7011970575279987E9, 0.0, 2023-11-28 16:44:17.527
17.0, -1294.5476701622829, -2129.3363491217606, -1374.3365657669492, -2123.3824283923022, -0.01600000075995922, 0.01600000075995922, -0.9760000463575125, 0.0, 0.0, 0.0, 0.0, 0.0, 1.7011970575439305E9, 0.0, 2023-11-28 16:44:17.543
17.0, -1300.0640225969255, -2173.8261989946477, -1488.2090396177955, -2238.698503626045, -0.01600000075995922, 0.01600000075995922, -0.9760000463575125, 0.0, 0.0, 0.0, 0.0, 0.0, 1.7011970575439305E9, 0.0, 2023-11-28 16:44:17.543
18.0, -1250.2261157874018, -2102.4427285403945, -1275.827600934077, -2021.6945485970937, -0.01600000075995922, 0.01600000075995922, -0.9760000463575125, 0.0, 0.0, 0.0, 0.0, 0.0, 1.7011970575444417E9, 0.0, 2023-11-28 16:44:17.544
18.0, -1274.3110715020448, -2107.211100983899, -1301.711448527407, -2046.3591888048686, -0.01600000075995922, 0.01600000075995922, -0.9760000463575125, 0.0, 0.0, 0.0, 0.0, 0.0, 1.7011970575444417E9, 0.0, 2023-11-28 16:44:17.544
19.0, -1319.6910175643861, -2169.588892344851, -1501.8634143560193, -2238.2347560315393, -0.01600000075995922, 0.01600000075995922, -0.9760000463575125, 0.0, 0.0, 0.0, 0.0, 0.0, 1.7011970575579655E9, 0.0, 2023-11-28 16:44:17.557
19.0, -1265.720521303825, -2135.436125949491, -1359.0254153483547, -2108.0712779737078, -0.01600000075995922, 0.01600000075995922, -0.9760000463575125, 0.0, 0.0, 0.0, 0.0, 0.0, 1.7011970575579655E9, 0.0, 2023-11-28 16:44:17.557
20.0, -1252.8627452561632, -2083.728269162122, -1243.7878780136816, -1991.1208664593287, -0.01600000075995922, 0.01600000075995922, -0.9920000471174717, 0.0, 0.0, 0.0, 0.0, 0.0, 1.7011970575737076E9, 0.0, 2023-11-28 16:44:17.573
20.0, -1304.3050691466779, -2148.3948792959563, -1452.0554267461412, -2202.3990346561186, -0.01600000075995922, 0.01600000075995922, -0.9920000471174717, 0.0, 0.0, 0.0, 0.0, 0.0, 1.7011970575737076E9, 0.0, 2023-11-28 16:44:17.573
21.0, -1281.2897248193622, -2152.9425976420753, -1430.0984741062857, -2181.7622667006217, -0.01600000075995922, 0.03200000151991844, -0.9920000471174717, 0.0, 0.0, 0.0, 0.0, 0.0, 1.7011970575744576E9, 0.0, 2023-11-28 16:44:17.574
21.0, -1236.7138572474942, -2075.7884615561925, -1248.3468160596676, -1982.7734097582288, -0.01600000075995922, 0.03200000151991844, -0.9920000471174717, 0.0, 0.0, 0.0, 0.0, 0.0, 1.7011970575744576E9, 0.0, 2023-11-28 16:44:17.574
22.0, -1288.5900095328689, -2123.2964106933214, -1373.3193129790016, -2118.8534095459618, -0.01600000075995922, 0.03200000151991844, -0.9920000471174717, 0.0, 0.0, 0.0, 0.0, 0.0, 1.7011970575879412E9, 0.0, 2023-11-28 16:44:17.587
22.0, -1302.386500469409, -2167.382351370994, -1495.3111096336506, -2236.005775657948, -0.01600000075995922, 0.03200000151991844, -0.9920000471174717, 0.0, 0.0, 0.0, 0.0, 0.0, 1.7011970575879412E9, 0.0, 2023-11-28 16:44:17.587
23.0, -1241.0783204957843, -2093.2051756498404, -1288.8237532800995, -2030.1542022968642, -0.01600000075995922, 0.03200000151991844, -0.9920000471174717, 0.0, 0.0, 0.0, 0.0, 0.0, 1.7011970576037488E9, 0.0, 2023-11-28 16:44:17.603
23.0, -1268.9218756658956, -2098.613070985768, -1311.7007213090546, -2046.8266762993298, -0.01600000075995922, 0.03200000151991844, -0.9920000471174717, 0.0, 0.0, 0.0, 0.0, 0.0, 1.7011970576037488E9, 0.0, 2023-11-28 16:44:17.603
24.0, -1307.2184512121603, -2165.224429096561, -1505.173225816805, -2242.2476686839946, -0.01600000075995922, 0.03200000151991844, -0.9920000471174717, 0.0, 0.0, 0.0, 0.0, 0.0, 1.7011970576044648E9, 0.0, 2023-11-28 16:44:17.604
24.0, -1256.2847537156194, -2123.2814510934986, -1358.8272006507032, -2096.0362799162976, -0.01600000075995922, 0.03200000151991844, -0.9920000471174717, 0.0, 0.0, 0.0, 0.0, 0.0, 1.7011970576044648E9, 0.0, 2023-11-28 16:44:17.604
25.0, -1256.4904482131824, -2081.970516182948, -1244.6929338029586, -1992.0034828488715, -0.01600000075995922, 0.03200000151991844, -0.9920000471174717, 0.0, 0.0, 0.0, 0.0, 0.0, 1.7011970576179907E9, 0.0, 2023-11-28 16:44:17.617
25.0, -1295.9650922454894, -2146.2481767213903, -1448.633418286685, -2196.9013817212544, -0.01600000075995922, 0.03200000151991844, -0.9920000471174717, 0.0, 0.0, 0.0, 0.0, 0.0, 1.7011970576179907E9, 0.0, 2023-11-28 16:44:17.617
26.0, -1285.2577586723492, -2150.582720770035, -1442.7729950561188, -2191.721620282624, -0.01600000075995922, 0.03200000151991844, -0.9920000471174717, 0.0, 0.0, 0.0, 0.0, 0.0, 1.701197057633779E9, 0.0, 2023-11-28 16:44:17.633
26.0, -1240.767908799462, -2079.644298410509, -1247.123868774157, -1983.7944024461322, -0.01600000075995922, 0.03200000151991844, -0.9920000471174717, 0.0, 0.0, 0.0, 0.0, 0.0, 1.701197057633779E9, 0.0, 2023-11-28 16:44:17.633
27.0, -1292.5094246864319, -2131.2399581992067, -1376.0606596465223, -2128.0573033369146, -0.01600000075995922, 0.03200000151991844, -0.9920000471174717, 0.0, 0.0, 0.0, 0.0, 0.0, 1.7011970576344783E9, 0.0, 2023-11-28 16:44:17.634
27.0, -1287.4156809467822, -2168.264967760537, -1487.4610596266575, -2244.2597348601557, -0.01600000075995922, 0.03200000151991844, -0.9920000471174717, 0.0, 0.0, 0.0, 0.0, 0.0, 1.7011970576344783E9, 0.0, 2023-11-28 16:44:17.634
28.0, -1236.0107560558245, -2099.9968339693733, -1285.5326413190924, -2025.430708652828, -0.01600000075995922, 0.03200000151991844, -0.9920000471174717, 0.0, 0.0, 0.0, 0.0, 0.0, 1.7011970576479428E9, 0.0, 2023-11-28 16:44:17.647
28.0, -1264.781806414947, -2100.3670840649866, -1302.0218602237292, -2050.286083758343, -0.01600000075995922, 0.03200000151991844, -0.9920000471174717, 0.0, 0.0, 0.0, 0.0, 0.0, 1.7011970576479428E9, 0.0, 2023-11-28 16:44:17.647
29.0, -1307.3231684109196, -2185.1880150600336, -1488.975719108712, -2243.7548483661376, -0.01600000075995922, 0.03200000151991844, -0.9920000471174717, 0.0, 0.0, 0.0, 0.0, 0.0, 1.7011970576637673E9, 0.0, 2023-11-28 16:44:17.663
29.0, -1262.8183589382097, -2137.4033133261837, -1363.2515022982843, -2105.5431056036614, -0.01600000075995922, 0.03200000151991844, -0.9920000471174717, 0.0, 0.0, 0.0, 0.0, 0.0, 1.7011970576637673E9, 0.0, 2023-11-28 16:44:17.663
30.0, -1255.518074224703, -2090.097318786662, -1255.3516486766748, -1991.9810434491374, -0.01600000075995922, 0.03200000151991844, -0.9920000471174717, 0.0, 0.0, 0.0, 0.0, 0.0, 1.7011970576644464E9, 0.0, 2023-11-28 16:44:17.664
30.0, -1305.1989052360877, -2168.092932362575, -1455.4923948054202, -2198.947106997017, -0.01600000075995922, 0.03200000151991844, -0.9920000471174717, 0.0, 0.0, 0.0, 0.0, 0.0, 1.7011970576644464E9, 0.0, 2023-11-28 16:44:17.664
31.0, -1275.6499556861818, -2167.8124398658983, -1441.6061462699436, -2184.4026360693388, -0.01600000075995922, 0.03200000151991844, -0.9920000471174717, 0.0, 0.0, 0.0, 0.0, 0.0, 1.7011970576779683E9, 0.0, 2023-11-28 16:44:17.677
31.0, -1238.6286860248074, -2098.530793186743, -1250.3701019356959, -1995.567607506644, -0.01600000075995922, 0.03200000151991844, -0.9920000471174717, 0.0, 0.0, 0.0, 0.0, 0.0, 1.7011970576779683E9, 0.0, 2023-11-28 16:44:17.677
32.0, -1286.8958348529413, -2136.5506161362864, -1378.4205365185626, -2128.7604045285843, -0.01600000075995922, 0.03200000151991844, -0.9920000471174717, 0.0, 0.0, 0.0, 0.0, 0.0, 1.7011970576937673E9, 0.0, 2023-11-28 16:44:17.693
32.0, -1300.5502095911652, -2184.9486614628695, -1498.1010750005953, -2243.6202119677328, -0.01600000075995922, 0.03200000151991844, -0.9920000471174717, 0.0, 0.0, 0.0, 0.0, 0.0, 1.7011970576937673E9, 0.0, 2023-11-28 16:44:17.693
33.0, -1245.278228146024, -2114.9152948926203, -1290.3683319617994, -2037.514325409662, -0.01600000075995922, 0.03200000151991844, -0.9920000471174717, 0.0, 0.0, 0.0, 0.0, 0.0, 1.7011970576944344E9, 0.0, 2023-11-28 16:44:17.694
33.0, -1269.0415524644777, -2110.3526169466786, -1303.375704007689, -2051.0191041496582, -0.01600000075995922, 0.03200000151991844, -0.9920000471174717, 0.0, 0.0, 0.0, 0.0, 0.0, 1.7011970576944344E9, 0.0, 2023-11-28 16:44:17.694
34.0, -1303.7665235530585, -2180.6402967139147, -1488.0631835195236, -2240.867645600345, -0.01600000075995922, 0.03200000151991844, -0.9920000471174717, 0.0, 0.0, 0.0, 0.0, 0.0, 1.701197057708214E9, 0.0, 2023-11-28 16:44:17.708
34.0, -1252.5672931596637, -2132.0627361894585, -1351.9233453324996, -2099.275033277925, -0.01600000075995922, 0.03200000151991844, -0.9920000471174717, 0.0, 0.0, 0.0, 0.0, 0.0, 1.701197057708214E9, 0.0, 2023-11-28 16:44:17.708
35.0, -1245.4764428436756, -2088.1039521102794, -1237.1345959925093, -1991.3265609568916, -0.01600000075995922, 0.03200000151991844, -0.9920000471174717, 0.0, 0.0, 0.0, 0.0, 0.0, 1.7011970577237508E9, 0.0, 2023-11-28 16:44:17.723
35.0, -1302.8726874636486, -2165.9163105883636, -1460.4739415463991, -2203.9772724374197, -0.01600000075995922, 0.03200000151991844, -0.9920000471174717, 0.0, 0.0, 0.0, 0.0, 0.0, 1.7011970577237508E9, 0.0, 2023-11-28 16:44:17.723
36.0, -1278.5558579517528, -2163.859365612734, -1429.8254614095204, -2182.89171648724, -0.01600000075995922, 0.03200000151991844, -0.9920000471174717, 0.0, 0.0, 0.0, 0.0, 0.0, 1.7011970577244003E9, 0.0, 2023-11-28 16:44:17.724
36.0, -1236.897112345323, -2092.258980961051, -1242.142322033178, -1989.983936872799, -0.01600000075995922, 0.03200000151991844, -0.9920000471174717, 0.0, 0.0, 0.0, 0.0, 0.0, 1.7011970577244003E9, 0.0, 2023-11-28 16:44:17.724
37.0, -1292.14665439073, -2140.3952332907356, -1381.7303479793482, -2126.221012458671, -0.01600000075995922, 0.03200000151991844, -0.9920000471174717, 0.0, 0.0, 0.0, 0.0, 0.0, 1.7011970577381406E9, 0.0, 2023-11-28 16:44:17.738
37.0, -1308.3217216990888, -2186.283805747051, -1498.4264462967403, -2251.5600195736624, -0.01600000075995922, 0.03200000151991844, -0.9920000471174717, 0.0, 0.0, 0.0, 0.0, 0.0, 1.7011970577381406E9, 0.0, 2023-11-28 16:44:17.738
38.0, -1248.5506406072527, -2116.979719668161, -1287.2230760990642, -2039.0551641914062, -0.01600000075995922, 0.03200000151991844, -0.9920000471174717, 0.0, 0.0, 0.0, 0.0, 0.0, 1.701197057753764E9, 0.0, 2023-11-28 16:44:17.753
38.0, -1283.077396998182, -2120.0539174317382, -1326.458366534207, -2062.055548918899, -0.01600000075995922, 0.03200000151991844, -0.9920000471174717, 0.0, 0.0, 0.0, 0.0, 0.0, 1.701197057753764E9, 0.0, 2023-11-28 16:44:17.753
39.0, -1321.6282857414335, -2187.3272378346883, -1507.174072293099, -2255.0568260322325, -0.01600000075995922, 0.03200000151991844, -0.9920000471174717, 0.0, 0.0, 0.0, 0.0, 0.0, 1.7011970577544267E9, 0.0, 2023-11-28 16:44:17.754
39.0, -1265.5671854056418, -2147.725437203888, -1371.4643226009794, -2122.66436760081, -0.01600000075995922, 0.03200000151991844, -0.9920000471174717, 0.0, 0.0, 0.0, 0.0, 0.0, 1.7011970577544267E9, 0.0, 2023-11-28 16:44:17.754
40.0, -1254.3026067391038, -2095.5800121217035, -1253.5452769980766, -2000.3509395499714, -0.01600000075995922, 0.03200000151991844, -0.9760000463575125, 0.0, 0.0, 0.0, 0.0, 0.0, 1.7011970577679863E9, 0.0, 2023-11-28 16:44:17.767
40.0, -1307.3755270102993, -2170.5014279340394, -1457.410963482689, -2212.874494432006, -0.01600000075995922, 0.03200000151991844, -0.9760000463575125, 0.0, 0.0, 0.0, 0.0, 0.0, 1.7011970577679863E9, 0.0, 2023-11-28 16:44:17.767
41.0, -1278.2342265555635, -2166.3650985830463, -1431.1269465941004, -2192.409761874471, -0.01600000075995922, 0.03200000151991844, -0.9760000463575125, 0.0, 0.0, 0.0, 0.0, 0.0, 1.7011970578000896E9, 0.0, 2023-11-28 16:44:17.800
41.0, -1238.2883551288396, -2097.9174495940097, -1238.8063312727027, -1996.483882995788, -0.01600000075995922, 0.03200000151991844, -0.9760000463575125, 0.0, 0.0, 0.0, 0.0, 0.0, 1.7011970578000896E9, 0.0, 2023-11-28 16:44:17.800
42.0, -1287.0267313513905, -2134.6582267587073, -1381.539613081608, -2128.9174803267233, -0.01600000075995922, 0.03200000151991844, -0.9760000463575125, 0.0, 0.0, 0.0, 0.0, 0.0, 1.7011970578007832E9, 0.0, 2023-11-28 16:44:17.800
42.0, -1297.778943723999, -2180.5467992150225, -1481.570717196446, -2245.329346247483, -0.01600000075995922, 0.03200000151991844, -0.9760000463575125, 0.0, 0.0, 0.0, 0.0, 0.0, 1.7011970578007832E9, 0.0, 2023-11-28 16:44:17.800
43.0, -1244.410571356304, -2109.754232953768, -1279.4927028906532, -2027.7270072256215, -0.01600000075995922, 0.03200000151991844, -0.9760000463575125, 0.0, 0.0, 0.0, 0.0, 0.0, 1.7011970578015907E9, 0.0, 2023-11-28 16:44:17.801
43.0, -1267.7400672798976, -2104.245360319037, -1303.1363504105248, -2050.1701468597166, -0.01600000075995922, 0.03200000151991844, -0.9760000463575125, 0.0, 0.0, 0.0, 0.0, 0.0, 1.7011970578015907E9, 0.0, 2023-11-28 16:44:17.801
44.0, -1305.2699633352458, -2178.1233440437354, -1501.3772273617797, -2244.558926856611, -0.01600000075995922, 0.03200000151991844, -0.9760000463575125, 0.0, 0.0, 0.0, 0.0, 0.0, 1.7011970578022897E9, 0.0, 2023-11-28 16:44:17.802
44.0, -1256.3595517147332, -2138.63000051165, -1353.8157347100787, -2106.5790578913875, -0.01600000075995922, 0.03200000151991844, -0.9760000463575125, 0.0, 0.0, 0.0, 0.0, 0.0, 1.7011970578022897E9, 0.0, 2023-11-28 16:44:17.802
45.0, -1241.7515024878085, -2089.3942175949924, -1243.0398980225436, -1988.2486232933588, -0.01600000075995922, 0.03200000151991844, -0.9760000463575125, 0.0, 0.0, 0.0, 0.0, 0.0, 1.701197057813058E9, 0.0, 2023-11-28 16:44:17.813
45.0, -1303.1419602604583, -2160.227922755759, -1453.0876391339116, -2196.7443059231155, -0.01600000075995922, 0.03200000151991844, -0.9760000463575125, 0.0, 0.0, 0.0, 0.0, 0.0, 1.701197057813058E9, 0.0, 2023-11-28 16:44:17.813
46.0, -1275.8219910841435, -2161.3947715419345, -1432.9033990730532, -2184.5971108670346, -0.01600000075995922, 0.03200000151991844, -0.9760000463575125, 0.0, 0.0, 0.0, 0.0, 0.0, 1.7011970578280227E9, 0.0, 2023-11-28 16:44:17.828
46.0, -1234.4811369739473, -2087.625244915951, -1232.4298018482514, -1984.1683924417011, -0.01600000075995922, 0.03200000151991844, -0.9760000463575125, 0.0, 0.0, 0.0, 0.0, 0.0, 1.7011970578280227E9, 0.0, 2023-11-28 16:44:17.828
47.0, -1282.3368968069553, -2122.4511933033355, -1374.2393283681013, -2121.8976881098934, -0.01600000075995922, 0.03200000151991844, -0.9760000463575125, 0.0, 0.0, 0.0, 0.0, 0.0, 1.7011970578436787E9, 0.0, 2023-11-28 16:44:17.843
47.0, -1288.2309791371226, -2175.6886691725813, -1483.5790434726514, -2240.4001581058837, -0.01600000075995922, 0.03200000151991844, -0.9760000463575125, 0.0, 0.0, 0.0, 0.0, 0.0, 1.7011970578436787E9, 0.0, 2023-11-28 16:44:17.843
48.0, -1231.3284013113007, -2098.2951794895343, -1285.330686721485, -2025.9019360472448, -0.01600000075995922, 0.03200000151991844, -0.9760000463575125, 0.0, 0.0, 0.0, 0.0, 0.0, 1.7011970578443985E9, 0.0, 2023-11-28 16:44:17.844
48.0, -1250.2522950870916, -2095.306999424938, -1296.8907174845226, -2041.4038213635795, -0.01600000075995922, 0.03200000151991844, -0.9760000463575125, 0.0, 0.0, 0.0, 0.0, 0.0, 1.7011970578443985E9, 0.0, 2023-11-28 16:44:17.844
49.0, -1291.3575355000794, -2163.9491232116707, -1476.6415290548466, -2232.703443997074, -0.01600000075995922, 0.03200000151991844, -0.9760000463575125, 0.0, 0.0, 0.0, 0.0, 0.0, 1.7011970578579953E9, 0.0, 2023-11-28 16:44:17.857
49.0, -1244.3806521566585, -2125.7198658646084, -1352.592787424568, -2100.4157027644105, -0.01600000075995922, 0.03200000151991844, -0.9760000463575125, 0.0, 0.0, 0.0, 0.0, 0.0, 1.7011970578579953E9, 0.0, 2023-11-28 16:44:17.857
50.0, -1232.0277626030147, -2072.2430363981985, -1232.1979280509986, -1983.5251296493225, -0.01600000075995922, 0.03200000151991844, -0.9760000463575125, 0.0, 0.0, 0.0, 0.0, 0.0, 1.7011970578736663E9, 0.0, 2023-11-28 16:44:17.873
50.0, -1296.5896555380896, -2153.5783806345426, -1437.694210916292, -2197.873755709734, -0.01600000075995922, 0.03200000151991844, -0.9760000463575125, 0.0, 0.0, 0.0, 0.0, 0.0, 1.7011970578736663E9, 0.0, 2023-11-28 16:44:17.873
51.0, -1276.3193977782503, -2159.3340866663493, -1426.029462954495, -2176.8667376586236, -0.01600000075995922, 0.01600000075995922, -0.9760000463575125, 0.0, 0.0, 0.0, 0.0, 0.0, 1.70119705787437E9, 0.0, 2023-11-28 16:44:17.874
51.0, -1234.5372354732826, -2090.329192583915, -1233.9145421306603, -1982.8295082575642, -0.01600000075995922, 0.01600000075995922, -0.9760000463575125, 0.0, 0.0, 0.0, 0.0, 0.0, 1.70119705787437E9, 0.0, 2023-11-28 16:44:17.874
52.0, -1275.623776386492, -2132.3507084860466, -1374.7554345619865, -2120.1960336300544, -0.03200000151991844, 0.01600000075995922, -0.9760000463575125, 0.0, 0.0, 0.0, 0.0, 0.0, 1.7011970578879955E9, 0.0, 2023-11-28 16:44:17.887
52.0, -1295.546223450452, -2177.057472556364, -1480.8900554045103, -2234.2068837792613, -0.03200000151991844, 0.01600000075995922, -0.9760000463575125, 0.0, 0.0, 0.0, 0.0, 0.0, 1.7011970578879955E9, 0.0, 2023-11-28 16:44:17.887
53.0, -1228.0185898505151, -2104.967161010485, -1278.1238995068707, -2023.5084000756033, -0.03200000151991844, 0.01600000075995922, -0.9760000463575125, 0.0, 0.0, 0.0, 0.0, 0.0, 1.7011970579036431E9, 0.0, 2023-11-28 16:44:17.903
53.0, -1267.1529029868543, -2109.4139020578004, -1292.4439764372073, -2042.062043755781, -0.03200000151991844, 0.01600000075995922, -0.9760000463575125, 0.0, 0.0, 0.0, 0.0, 0.0, 1.7011970579036431E9, 0.0, 2023-11-28 16:44:17.903
54.0, -1296.2418448422104, -2176.474048163276, -1486.7729180348106, -2233.8515932834707, -0.03200000151991844, 0.01600000075995922, -0.9760000463575125, 0.0, 0.0, 0.0, 0.0, 0.0, 1.701197057904379E9, 0.0, 2023-11-28 16:44:17.904
54.0, -1246.6881704293191, -2132.6648600823246, -1348.9052460682578, -2094.461782034952, -0.03200000151991844, 0.01600000075995922, -0.9760000463575125, 0.0, 0.0, 0.0, 0.0, 0.0, 1.701197057904379E9, 0.0, 2023-11-28 16:44:17.904
55.0, -1233.893972680904, -2088.227368808817, -1242.5724105280824, -1978.513663708698, -0.03200000151991844, 0.01600000075995922, -0.9760000463575125, 0.0, 0.0, 0.0, 0.0, 0.0, 1.701197057917987E9, 0.0, 2023-11-28 16:44:17.917
55.0, -1307.9477317035198, -2161.64160493901, -1449.7217291737907, -2191.983413279522, -0.03200000151991844, 0.01600000075995922, -0.9760000463575125, 0.0, 0.0, 0.0, 0.0, 0.0, 1.701197057917987E9, 0.0, 2023-11-28 16:44:17.917
56.0, -1276.936481270939, -2170.5724860331975, -1431.2952420921065, -2181.567791902926, -0.03200000151991844, 0.01600000075995922, -0.9760000463575125, 0.0, 0.0, 0.0, 0.0, 0.0, 1.701197057933666E9, 0.0, 2023-11-28 16:44:17.933
56.0, -1232.9515178920701, -2095.164883226622, -1240.6800211505033, -1981.6177806719206, -0.03200000151991844, 0.01600000075995922, -0.9760000463575125, 0.0, 0.0, 0.0, 0.0, 0.0, 1.701197057933666E9, 0.0, 2023-11-28 16:44:17.933
57.0, -1279.7339264377952, -2135.0172571544535, -1369.115665428806, -2112.267445723992, -0.03200000151991844, 0.01600000075995922, -0.9760000463575125, 0.0, 0.0, 0.0, 0.0, 0.0, 1.7011970579343543E9, 0.0, 2023-11-28 16:44:17.934
57.0, -1303.6805058540776, -2195.240866140928, -1485.441513650585, -2239.7531554135494, -0.03200000151991844, 0.01600000075995922, -0.9760000463575125, 0.0, 0.0, 0.0, 0.0, 0.0, 1.7011970579343543E9, 0.0, 2023-11-28 16:44:17.934
58.0, -1233.736896882765, -2111.0893772379495, -1271.7922488818876, -2020.6024978100322, -0.03200000151991844, 0.01600000075995922, -0.9760000463575125, 0.0, 0.0, 0.0, 0.0, 0.0, 1.7011970579479856E9, 0.0, 2023-11-28 16:44:17.947
58.0, -1261.513133853674, -2108.8566569644026, -1297.9416293720715, -2043.7337790359743, -0.03200000151991844, 0.01600000075995922, -0.9760000463575125, 0.0, 0.0, 0.0, 0.0, 0.0, 1.7011970579479856E9, 0.0, 2023-11-28 16:44:17.947
59.0, -1301.4029067810625, -2184.413855769206, -1480.2093936125748, -2238.006622134242, -0.03200000151991844, 0.01600000075995922, -0.9760000463575125, 0.0, 0.0, 0.0, 0.0, 0.0, 1.7011970579637313E9, 0.0, 2023-11-28 16:44:17.963
59.0, -1250.140098088421, -2143.5068300538696, -1357.4845765666105, -2102.184675443452, -0.03200000151991844, 0.01600000075995922, -0.9760000463575125, 0.0, 0.0, 0.0, 0.0, 0.0, 1.7011970579637313E9, 0.0, 2023-11-28 16:44:17.963
60.0, -1243.3559195687994, -2093.538026745897, -1247.292164272163, -1987.3435675040819, -0.03200000151991844, 0.01600000075995922, -0.9760000463575125, 0.0, 0.0, 0.0, 0.0, 0.0, 1.7011970579643652E9, 0.0, 2023-11-28 16:44:17.964
